#     FILENAME=!Skynet_57528_lach-cc-80_20519_20926.cyb.fits
#     BASENAME=Skynet_57528_lach-cc-80_20519_20926
#     SRC_NAME=lach-cc-80
#     OBSERVER=ccmadison16_9505
#     DATE_OBS=2016-05-20T16:01:39.500
#        OBSID=20519
#      SCANNUM=20926
#          MJD=57528.6689
#          UTC=57788
#     SCANTYPE=track
#     DATAMODE=HIRES
#     TUNEFREQ=1420.0000
# Actual_FREQ1=1420.0000
# Actual_FREQ2=1420.0000
#    LO1Tuning=6870.000
#     RFFILTER=1355_1435
#        OBSBW=-15.6250
#        NCHAN=1024 
#        FOCUS=37.0709
#           RA=20:35:51.42
#          DEC=40:39:49.25
#      RA(hrs)=20.597800
#     DEC(deg)=40.663800
#    AZIM(deg)=303.553
#    ELEV(deg)=23.665
#     IFattens=12.00, 11.00
#      WARNING=None
#    TCAL_XL1=7.9635
#    TCAL_YR1=9.1340
#    TCAL_XL2=7.9635
#    TCAL_YR2=9.1340
#     TRX_XL1=11.7060
#     TRX_YR1=11.7060
#     TRX_XL2=11.7060
#     TRX_YR2=11.7060
#        TAVE=1.0000
#Freq1(MHz)          XL1          YR1  Freq2(MHz)          XL2          YR2 

   1427.81250     307.7010     257.7789   1427.81250     307.7010     257.7789
   1427.79724     308.4003     258.5850   1427.79724     308.4003     258.5850
   1427.78198     308.4958     259.3909   1427.78198     308.4958     259.3909
   1427.76672     309.8120     259.4578   1427.76672     309.8120     259.4578
   1427.75146     310.1065     260.0948   1427.75146     310.1065     260.0948
   1427.73621     311.0723     261.3598   1427.73621     311.0723     261.3598
   1427.72095     311.6364     261.8723   1427.72095     311.6364     261.8723
   1427.70569     312.5347     262.5988   1427.70569     312.5347     262.5988
   1427.69043     313.5018     262.9287   1427.69043     313.5018     262.9287
   1427.67517     313.6009     264.0409   1427.67517     313.6009     264.0409
   1427.65991     314.2257     264.6236   1427.65991     314.2257     264.6236
   1427.64465     315.6349     265.8214   1427.64465     315.6349     265.8214
   1427.62939     317.2798     266.5985   1427.62939     317.2798     266.5985
   1427.61414     317.4467     267.5651   1427.61414     317.4467     267.5651
   1427.59888     318.9641     268.5705   1427.59888     318.9641     268.5705
   1427.58362     319.5642     269.8646   1427.58362     319.5642     269.8646
   1427.56836     320.5703     270.3251   1427.56836     320.5703     270.3251
   1427.55310     322.1397     271.2665   1427.55310     322.1397     271.2665
   1427.53784     323.7667     272.6916   1427.53784     323.7667     272.6916
   1427.52258     324.6696     274.3257   1427.52258     324.6696     274.3257
   1427.50732     325.5792     275.4174   1427.50732     325.5792     275.4174
   1427.49207     327.3714     276.4815   1427.49207     327.3714     276.4815
   1427.47681     328.1810     277.6489   1427.47681     328.1810     277.6489
   1427.46155     330.2360     278.7014   1427.46155     330.2360     278.7014
   1427.44629     331.2106     279.8762   1427.44629     331.2106     279.8762
   1427.43103     332.8498     281.4646   1427.43103     332.8498     281.4646
   1427.41577     334.5062     282.5202   1427.41577     334.5062     282.5202
   1427.40051     335.3616     285.1348   1427.40051     335.3616     285.1348
   1427.38525     337.2221     285.8075   1427.38525     337.2221     285.8075
   1427.37000     338.8039     287.2974   1427.37000     338.8039     287.2974
   1427.35474     340.9365     288.6391   1427.35474     340.9365     288.6391
   1427.33948     343.0055     290.2061   1427.33948     343.0055     290.2061
   1427.32422     344.2536     291.6440   1427.32422     344.2536     291.6440
   1427.30896     346.1731     293.0686   1427.30896     346.1731     293.0686
   1427.29370     347.5135     294.7832   1427.29370     347.5135     294.7832
   1427.27844     350.4213     296.7099   1427.27844     350.4213     296.7099
   1427.26318     351.8162     298.4850   1427.26318     351.8162     298.4850
   1427.24792     353.4876     299.3296   1427.24792     353.4876     299.3296
   1427.23267     355.5447     301.5559   1427.23267     355.5447     301.5559
   1427.21741     357.4397     303.2160   1427.21741     357.4397     303.2160
   1427.20215     358.9741     305.0420   1427.20215     358.9741     305.0420
   1427.18689     361.1771     306.3615   1427.18689     361.1771     306.3615
   1427.17163     362.6806     308.5374   1427.17163     362.6806     308.5374
   1427.15637     365.3236     310.1586   1427.15637     365.3236     310.1586
   1427.14111     367.9082     312.0020   1427.14111     367.9082     312.0020
   1427.12585     368.7334     314.1787   1427.12585     368.7334     314.1787
   1427.11060     371.2383     316.3283   1427.11060     371.2383     316.3283
   1427.09534     373.6736     317.9418   1427.09534     373.6736     317.9418
   1427.08008     375.5729     319.9543   1427.08008     375.5729     319.9543
   1427.06482     378.3546     322.2951   1427.06482     378.3546     322.2951
   1427.04956     380.2776     324.0440   1427.04956     380.2776     324.0440
   1427.03430     382.3488     325.8718   1427.03430     382.3488     325.8718
   1427.01904     384.6697     327.7324   1427.01904     384.6697     327.7324
   1427.00378     387.3260     329.9216   1427.00378     387.3260     329.9216
   1426.98853     389.1861     332.1682   1426.98853     389.1861     332.1682
   1426.97327     391.1055     333.7970   1426.97327     391.1055     333.7970
   1426.95801     393.9847     336.5151   1426.95801     393.9847     336.5151
   1426.94275     396.8310     337.4090   1426.94275     396.8310     337.4090
   1426.92749     398.7961     339.6183   1426.92749     398.7961     339.6183
   1426.91223     401.2313     342.1458   1426.91223     401.2313     342.1458
   1426.89697     403.6019     344.4817   1426.89697     403.6019     344.4817
   1426.88171     405.3521     346.0886   1426.88171     405.3521     346.0886
   1426.86646     407.4960     348.2771   1426.86646     407.4960     348.2771
   1426.85120     410.6036     350.3546   1426.85120     410.6036     350.3546
   1426.83594     412.5389     352.2497   1426.83594     412.5389     352.2497
   1426.82068     415.7803     353.9528   1426.82068     415.7803     353.9528
   1426.80542     417.8992     356.9640   1426.80542     417.8992     356.9640
   1426.79016     420.2804     359.2200   1426.79016     420.2804     359.2200
   1426.77490     422.8887     360.5448   1426.77490     422.8887     360.5448
   1426.75964     424.8487     362.8039   1426.75964     424.8487     362.8039
   1426.74438     427.5510     365.0907   1426.74438     427.5510     365.0907
   1426.72913     430.2144     366.7004   1426.72913     430.2144     366.7004
   1426.71387     433.1883     369.6605   1426.71387     433.1883     369.6605
   1426.69861     434.9945     371.4839   1426.69861     434.9945     371.4839
   1426.68335     437.5791     373.2769   1426.68335     437.5791     373.2769
   1426.66809     440.0353     375.9038   1426.66809     440.0353     375.9038
   1426.65283     442.5709     377.6821   1426.65283     442.5709     377.6821
   1426.63757     444.4586     380.5764   1426.63757     444.4586     380.5764
   1426.62231     449.5310     382.6578   1426.62231     449.5310     382.6578
   1426.60706     450.4305     384.1154   1426.60706     450.4305     384.1154
   1426.59180     452.5986     386.4831   1426.59180     452.5986     386.4831
   1426.57654     455.1245     388.7742   1426.57654     455.1245     388.7742
   1426.56128     457.8055     390.8975   1426.56128     457.8055     390.8975
   1426.54602     459.7244     392.3795   1426.54602     459.7244     392.3795
   1426.53076     462.4511     394.8037   1426.53076     462.4511     394.8037
   1426.51550     464.2573     396.6582   1426.51550     464.2573     396.6582
   1426.50024     466.9882     398.2935   1426.50024     466.9882     398.2935
   1426.48499     469.4332     400.8900   1426.48499     469.4332     400.8900
   1426.46973     471.4695     403.1218   1426.46973     471.4695     403.1218
   1426.45447     474.3224     404.4737   1426.45447     474.3224     404.4737
   1426.43921     476.6045     406.8879   1426.43921     476.6045     406.8879
   1426.42395     478.6368     409.0451   1426.42395     478.6368     409.0451
   1426.40869     481.5648     411.0388   1426.40869     481.5648     411.0388
   1426.39343     484.0210     412.5852   1426.39343     484.0210     412.5852
   1426.37817     487.3498     415.3474   1426.37817     487.3498     415.3474
   1426.36292     488.3527     416.3031   1426.36292     488.3527     416.3031
   1426.34766     491.0142     418.6715   1426.34766     491.0142     418.6715
   1426.33240     493.8165     420.6232   1426.33240     493.8165     420.6232
   1426.31714     495.7493     423.2684   1426.31714     495.7493     423.2684
   1426.30188     497.8388     424.2990   1426.30188     497.8388     424.2990
   1426.28662     499.8283     426.6169   1426.28662     499.8283     426.6169
   1426.27136     502.5455     427.9674   1426.27136     502.5455     427.9674
   1426.25610     504.4468     430.0889   1426.25610     504.4468     430.0889
   1426.24084     507.6168     431.6148   1426.24084     507.6168     431.6148
   1426.22559     509.5464     434.1315   1426.22559     509.5464     434.1315
   1426.21033     510.8871     436.2145   1426.21033     510.8871     436.2145
   1426.19507     513.5954     437.7174   1426.19507     513.5954     437.7174
   1426.17981     516.7562     439.4253   1426.17981     516.7562     439.4253
   1426.16455     518.2891     441.6423   1426.16455     518.2891     441.6423
   1426.14929     520.7613     443.3356   1426.14929     520.7613     443.3356
   1426.13403     522.4242     444.6049   1426.13403     522.4242     444.6049
   1426.11877     523.8764     446.2114   1426.11877     523.8764     446.2114
   1426.10352     525.8243     448.6286   1426.10352     525.8243     448.6286
   1426.08826     528.4230     450.3164   1426.08826     528.4230     450.3164
   1426.07300     530.4336     451.0938   1426.07300     530.4336     451.0938
   1426.05774     533.6657     453.2754   1426.05774     533.6657     453.2754
   1426.04248     534.7620     455.8691   1426.04248     534.7620     455.8691
   1426.02722     536.3244     456.9377   1426.02722     536.3244     456.9377
   1426.01196     539.3018     457.9791   1426.01196     539.3018     457.9791
   1425.99670     540.0969     459.9221   1425.99670     540.0969     459.9221
   1425.98145     542.3723     461.3297   1425.98145     542.3723     461.3297
   1425.96619     545.0856     462.8474   1425.96619     545.0856     462.8474
   1425.95093     546.7543     464.5307   1425.95093     546.7543     464.5307
   1425.93567     547.9371     466.7161   1425.93567     547.9371     466.7161
   1425.92041     550.3007     468.3842   1425.92041     550.3007     468.3842
   1425.90515     551.7513     469.3449   1425.90515     551.7513     469.3449
   1425.88989     554.0331     470.6537   1425.88989     554.0331     470.6537
   1425.87463     555.6597     472.7436   1425.87463     555.6597     472.7436
   1425.85938     556.5989     473.8551   1425.85938     556.5989     473.8551
   1425.84412     559.0695     475.4266   1425.84412     559.0695     475.4266
   1425.82886     559.0753     477.3428   1425.82886     559.0753     477.3428
   1425.81360     562.3313     478.6385   1425.81360     562.3313     478.6385
   1425.79834     563.6573     479.7921   1425.79834     563.6573     479.7921
   1425.78308     565.1286     480.7267   1425.78308     565.1286     480.7267
   1425.76782     566.5719     482.0890   1425.76782     566.5719     482.0890
   1425.75256     568.6346     483.8757   1425.75256     568.6346     483.8757
   1425.73730     570.1279     484.6284   1425.73730     570.1279     484.6284
   1425.72205     571.9503     485.7656   1425.72205     571.9503     485.7656
   1425.70679     572.3920     488.2881   1425.70679     572.3920     488.2881
   1425.69153     574.4684     488.6774   1425.69153     574.4684     488.6774
   1425.67627     576.6638     489.8068   1425.67627     576.6638     489.8068
   1425.66101     577.9807     491.3279   1425.66101     577.9807     491.3279
   1425.64575     578.6023     492.7168   1425.64575     578.6023     492.7168
   1425.63049     581.0516     493.9178   1425.63049     581.0516     493.9178
   1425.61523     582.1126     494.6313   1425.61523     582.1126     494.6313
   1425.59998     582.6174     496.8227   1425.59998     582.6174     496.8227
   1425.58472     584.4344     497.6783   1425.58472     584.4344     497.6783
   1425.56946     585.4972     499.1348   1425.56946     585.4972     499.1348
   1425.55420     587.3342     499.4034   1425.55420     587.3342     499.4034
   1425.53894     588.3282     501.1011   1425.53894     588.3282     501.1011
   1425.52368     588.8915     501.9033   1425.52368     588.8915     501.9033
   1425.50842     590.4255     502.6201   1425.50842     590.4255     502.6201
   1425.49316     590.4512     504.5454   1425.49316     590.4512     504.5454
   1425.47791     592.4006     506.1891   1425.47791     592.4006     506.1891
   1425.46265     594.4677     506.8928   1425.46265     594.4677     506.8928
   1425.44739     594.2833     507.8848   1425.44739     594.2833     507.8848
   1425.43213     596.4154     508.2372   1425.43213     596.4154     508.2372
   1425.41687     597.8768     509.6265   1425.41687     597.8768     509.6265
   1425.40161     597.0155     511.7656   1425.40161     597.0155     511.7656
   1425.38635     599.4081     513.0904   1425.38635     599.4081     513.0904
   1425.37109     600.1093     512.6315   1425.37109     600.1093     512.6315
   1425.35583     600.2988     514.5311   1425.35583     600.2988     514.5311
   1425.34058     601.8108     515.2983   1425.34058     601.8108     515.2983
   1425.32532     603.3004     515.4793   1425.32532     603.3004     515.4793
   1425.31006     602.4182     516.6438   1425.31006     602.4182     516.6438
   1425.29480     603.6091     516.5355   1425.29480     603.6091     516.5355
   1425.27954     605.7327     517.8721   1425.27954     605.7327     517.8721
   1425.26428     605.6545     519.5350   1425.26428     605.6545     519.5350
   1425.24902     607.2784     520.5674   1425.24902     607.2784     520.5674
   1425.23376     607.1147     520.5038   1425.23376     607.1147     520.5038
   1425.21851     609.1372     521.3707   1425.21851     609.1372     521.3707
   1425.20325     608.2692     521.7475   1425.20325     608.2692     521.7475
   1425.18799     610.5385     524.4371   1425.18799     610.5385     524.4371
   1425.17273     610.4540     524.0308   1425.17273     610.4540     524.0308
   1425.15747     609.6545     525.3339   1425.15747     609.6545     525.3339
   1425.14221     611.5958     525.9104   1425.14221     611.5958     525.9104
   1425.12695     610.9700     526.8534   1425.12695     610.9700     526.8534
   1425.11169     612.5982     527.8226   1425.11169     612.5982     527.8226
   1425.09644     614.1738     529.0864   1425.09644     614.1738     529.0864
   1425.08118     614.1370     529.8619   1425.08118     614.1370     529.8619
   1425.06592     615.3300     531.0349   1425.06592     615.3300     531.0349
   1425.05066     615.2841     530.8184   1425.05066     615.2841     530.8184
   1425.03540     614.5038     531.7090   1425.03540     614.5038     531.7090
   1425.02014     616.4888     532.2196   1425.02014     616.4888     532.2196
   1425.00488     617.9197     532.5844   1425.00488     617.9197     532.5844
   1424.98962     617.3422     534.2407   1424.98962     617.3422     534.2407
   1424.97437     617.3362     534.9185   1424.97437     617.3362     534.9185
   1424.95911     618.4254     535.6818   1424.95911     618.4254     535.6818
   1424.94385     619.4663     537.5068   1424.94385     619.4663     537.5068
   1424.92859     620.1357     537.1237   1424.92859     620.1357     537.1237
   1424.91333     620.7852     537.8976   1424.91333     620.7852     537.8976
   1424.89807     621.1520     539.7035   1424.89807     621.1520     539.7035
   1424.88281     620.3252     540.2076   1424.88281     620.3252     540.2076
   1424.86755     621.0773     539.7377   1424.86755     621.0773     539.7377
   1424.85229     620.9450     541.5411   1424.85229     620.9450     541.5411
   1424.83704     621.0456     541.7815   1424.83704     621.0456     541.7815
   1424.82178     621.0270     541.1940   1424.82178     621.0270     541.1940
   1424.80652     621.5611     541.5375   1424.80652     621.5611     541.5375
   1424.79126     621.4040     543.2202   1424.79126     621.4040     543.2202
   1424.77600     621.6249     542.6238   1424.77600     621.6249     542.6238
   1424.76074     621.7617     543.8645   1424.76074     621.7617     543.8645
   1424.74548     621.4491     545.0984   1424.74548     621.4491     545.0984
   1424.73022     622.4272     545.0820   1424.73022     622.4272     545.0820
   1424.71497     622.3543     545.2208   1424.71497     622.3543     545.2208
   1424.69971     621.7537     545.2946   1424.69971     621.7537     545.2946
   1424.68445     623.6999     545.8585   1424.68445     623.6999     545.8585
   1424.66919     623.4216     546.4708   1424.66919     623.4216     546.4708
   1424.65393     623.0043     548.1326   1424.65393     623.0043     548.1326
   1424.63867     623.6257     547.3662   1424.63867     623.6257     547.3662
   1424.62341     622.5982     549.3828   1424.62341     622.5982     549.3828
   1424.60815     623.3001     549.3907   1424.60815     623.3001     549.3907
   1424.59290     624.0331     550.1946   1424.59290     624.0331     550.1946
   1424.57764     624.8862     550.6969   1424.57764     624.8862     550.6969
   1424.56238     624.0423     551.2770   1424.56238     624.0423     551.2770
   1424.54712     623.1501     551.6331   1424.54712     623.1501     551.6331
   1424.53186     623.3506     552.2897   1424.53186     623.3506     552.2897
   1424.51660     623.9136     552.9986   1424.51660     623.9136     552.9986
   1424.50134     624.3107     554.5639   1424.50134     624.3107     554.5639
   1424.48608     624.3011     554.0742   1424.48608     624.3011     554.0742
   1424.47083     624.3608     554.4442   1424.47083     624.3608     554.4442
   1424.45557     624.4496     555.3749   1424.45557     624.4496     555.3749
   1424.44031     624.2954     555.3518   1424.44031     624.2954     555.3518
   1424.42505     624.7711     556.3982   1424.42505     624.7711     556.3982
   1424.40979     624.2767     556.7202   1424.40979     624.2767     556.7202
   1424.39453     623.8338     557.3026   1424.39453     623.8338     557.3026
   1424.37927     623.9603     558.6991   1424.37927     623.9603     558.6991
   1424.36401     625.0936     559.6805   1424.36401     625.0936     559.6805
   1424.34875     624.6127     559.0061   1424.34875     624.6127     559.0061
   1424.33350     624.1357     559.9446   1424.33350     624.1357     559.9446
   1424.31824     623.9993     561.1873   1424.31824     623.9993     561.1873
   1424.30298     624.6656     560.2219   1424.30298     624.6656     560.2219
   1424.28772     624.8121     561.5558   1424.28772     624.8121     561.5558
   1424.27246     624.4804     561.7208   1424.27246     624.4804     561.7208
   1424.25720     624.3972     563.1140   1424.25720     624.3972     563.1140
   1424.24194     623.9198     562.6739   1424.24194     623.9198     562.6739
   1424.22668     624.6346     563.1186   1424.22668     624.6346     563.1186
   1424.21143     624.3057     564.4489   1424.21143     624.3057     564.4489
   1424.19617     624.3224     564.5306   1424.19617     624.3224     564.5306
   1424.18091     624.9610     565.7126   1424.18091     624.9610     565.7126
   1424.16565     622.4373     565.6288   1424.16565     622.4373     565.6288
