#     FILENAME=!Skynet_57533_lach-hhg-194-2_20795_21209.cyb.fits
#     BASENAME=Skynet_57533_lach-hhg-194-2_20795_21209
#     SRC_NAME=lach-hhg-194-2
#     OBSERVER=ccmadison16_9505
#     DATE_OBS=2016-05-25T18:35:49.680
#        OBSID=20795
#      SCANNUM=21209
#          MJD=57533.7759
#          UTC=67039
#     SCANTYPE=track
#     DATAMODE=HIRES
#     TUNEFREQ=1420.0000
# Actual_FREQ1=1420.0000
# Actual_FREQ2=1420.0000
#    LO1Tuning=6870.000
#     RFFILTER=1355_1435
#        OBSBW=-15.6250
#        NCHAN=1024 
#        FOCUS=37.0709
#           RA=06:15:49.87
#          DEC=16:46:57.15
#      RA(hrs)=6.263900
#     DEC(deg)=16.782500
#    AZIM(deg)=151.820
#    ELEV(deg)=66.060
#     IFattens=10.00, 9.00
#      WARNING=None
#    TCAL_XL1=7.9635
#    TCAL_YR1=9.1340
#    TCAL_XL2=7.9635
#    TCAL_YR2=9.1340
#     TRX_XL1=11.7060
#     TRX_YR1=11.7060
#     TRX_XL2=11.7060
#     TRX_YR2=11.7060
#        TAVE=1.0000
#Freq1(MHz)          XL1          YR1  Freq2(MHz)          XL2          YR2 

   1427.81250     366.5052     264.3036   1427.81250     366.5052     264.3036
   1427.79724     366.3472     265.2267   1427.79724     366.3472     265.2267
   1427.78198     367.6635     266.2134   1427.78198     367.6635     266.2134
   1427.76672     368.3523     267.1644   1427.76672     368.3523     267.1644
   1427.75146     368.8434     268.0619   1427.75146     368.8434     268.0619
   1427.73621     369.7207     269.3943   1427.73621     369.7207     269.3943
   1427.72095     370.7652     269.9938   1427.72095     370.7652     269.9938
   1427.70569     371.8156     271.1257   1427.70569     371.8156     271.1257
   1427.69043     372.7304     272.3112   1427.69043     372.7304     272.3112
   1427.67517     373.4415     273.4404   1427.67517     373.4415     273.4404
   1427.65991     374.2466     274.9002   1427.65991     374.2466     274.9002
   1427.64465     375.6420     275.6320   1427.64465     375.6420     275.6320
   1427.62939     376.2087     277.1653   1427.62939     376.2087     277.1653
   1427.61414     377.9732     278.6562   1427.61414     377.9732     278.6562
   1427.59888     379.1218     279.6971   1427.59888     379.1218     279.6971
   1427.58362     380.8995     280.4783   1427.58362     380.8995     280.4783
   1427.56836     382.2151     281.8642   1427.56836     382.2151     281.8642
   1427.55310     383.3000     283.7356   1427.55310     383.3000     283.7356
   1427.53784     385.0341     284.6745   1427.53784     385.0341     284.6745
   1427.52258     386.4265     286.2484   1427.52258     386.4265     286.2484
   1427.50732     388.5103     288.1991   1427.50732     388.5103     288.1991
   1427.49207     388.8425     289.5144   1427.49207     388.8425     289.5144
   1427.47681     391.7150     290.7017   1427.47681     391.7150     290.7017
   1427.46155     393.1663     292.4815   1427.46155     393.1663     292.4815
   1427.44629     394.4265     293.6677   1427.44629     394.4265     293.6677
   1427.43103     396.2682     295.1581   1427.43103     396.2682     295.1581
   1427.41577     398.0005     297.0208   1427.41577     398.0005     297.0208
   1427.40051     399.8225     298.3059   1427.40051     399.8225     298.3059
   1427.38525     401.7751     300.2797   1427.38525     401.7751     300.2797
   1427.37000     404.2680     302.0150   1427.37000     404.2680     302.0150
   1427.35474     407.1188     303.5793   1427.35474     407.1188     303.5793
   1427.33948     408.9233     304.4434   1427.33948     408.9233     304.4434
   1427.32422     410.9477     306.4983   1427.32422     410.9477     306.4983
   1427.30896     413.5884     308.5634   1427.30896     413.5884     308.5634
   1427.29370     415.5223     310.4495   1427.29370     415.5223     310.4495
   1427.27844     417.5090     311.8036   1427.27844     417.5090     311.8036
   1427.26318     420.5478     313.2610   1427.26318     420.5478     313.2610
   1427.24792     422.8840     315.5254   1427.24792     422.8840     315.5254
   1427.23267     425.1504     317.3033   1427.23267     425.1504     317.3033
   1427.21741     427.5766     318.7499   1427.21741     427.5766     318.7499
   1427.20215     429.8088     321.1700   1427.20215     429.8088     321.1700
   1427.18689     432.8266     322.5262   1427.18689     432.8266     322.5262
   1427.17163     435.3485     323.7756   1427.17163     435.3485     323.7756
   1427.15637     437.8042     326.7519   1427.15637     437.8042     326.7519
   1427.14111     440.4404     328.1250   1427.14111     440.4404     328.1250
   1427.12585     443.0485     330.3078   1427.12585     443.0485     330.3078
   1427.11060     445.5776     332.2072   1427.11060     445.5776     332.2072
   1427.09534     448.1377     333.7843   1427.09534     448.1377     333.7843
   1427.08008     451.7442     335.8695   1427.08008     451.7442     335.8695
   1427.06482     454.2488     337.5573   1427.06482     454.2488     337.5573
   1427.04956     457.4040     339.3895   1427.04956     457.4040     339.3895
   1427.03430     459.9426     341.8083   1427.03430     459.9426     341.8083
   1427.01904     462.6181     343.8495   1427.01904     462.6181     343.8495
   1427.00378     466.7674     346.1259   1427.00378     466.7674     346.1259
   1426.98853     469.2957     347.6844   1426.98853     469.2957     347.6844
   1426.97327     472.1695     348.9580   1426.97327     472.1695     348.9580
   1426.95801     475.8814     351.1420   1426.95801     475.8814     351.1420
   1426.94275     478.4561     353.3832   1426.94275     478.4561     353.3832
   1426.92749     481.8493     355.2507   1426.92749     481.8493     355.2507
   1426.91223     484.3411     356.6978   1426.91223     484.3411     356.6978
   1426.89697     487.4017     359.3877   1426.89697     487.4017     359.3877
   1426.88171     491.1071     360.8490   1426.88171     491.1071     360.8490
   1426.86646     494.8201     362.7949   1426.86646     494.8201     362.7949
   1426.85120     496.6367     364.7061   1426.85120     496.6367     364.7061
   1426.83594     500.7706     366.7287   1426.83594     500.7706     366.7287
   1426.82068     503.6305     368.5705   1426.82068     503.6305     368.5705
   1426.80542     507.8548     370.6226   1426.80542     507.8548     370.6226
   1426.79016     510.3036     372.3514   1426.79016     510.3036     372.3514
   1426.77490     514.5015     374.3751   1426.77490     514.5015     374.3751
   1426.75964     517.0132     376.4637   1426.75964     517.0132     376.4637
   1426.74438     520.1700     378.0670   1426.74438     520.1700     378.0670
   1426.72913     523.2456     379.8101   1426.72913     523.2456     379.8101
   1426.71387     526.9893     381.7408   1426.71387     526.9893     381.7408
   1426.69861     530.0651     384.2954   1426.69861     530.0651     384.2954
   1426.68335     534.3799     385.4204   1426.68335     534.3799     385.4204
   1426.66809     536.6852     387.8347   1426.66809     536.6852     387.8347
   1426.65283     540.5029     389.9587   1426.65283     540.5029     389.9587
   1426.63757     542.9222     391.0919   1426.63757     542.9222     391.0919
   1426.62231     549.0137     393.9731   1426.62231     549.0137     393.9731
   1426.60706     551.1399     394.9948   1426.60706     551.1399     394.9948
   1426.59180     554.1874     396.6700   1426.59180     554.1874     396.6700
   1426.57654     557.1293     397.7941   1426.57654     557.1293     397.7941
   1426.56128     561.3007     398.9926   1426.56128     561.3007     398.9926
   1426.54602     564.6956     401.5481   1426.54602     564.6956     401.5481
   1426.53076     567.5411     403.2928   1426.53076     567.5411     403.2928
   1426.51550     571.7781     405.3034   1426.51550     571.7781     405.3034
   1426.50024     574.4523     407.0332   1426.50024     574.4523     407.0332
   1426.48499     578.0486     409.2525   1426.48499     578.0486     409.2525
   1426.46973     581.0509     410.3132   1426.46973     581.0509     410.3132
   1426.45447     585.6505     411.8795   1426.45447     585.6505     411.8795
   1426.43921     587.6719     413.4714   1426.43921     587.6719     413.4714
   1426.42395     591.2729     416.1068   1426.42395     591.2729     416.1068
   1426.40869     594.9933     416.6383   1426.40869     594.9933     416.6383
   1426.39343     598.1237     419.4210   1426.39343     598.1237     419.4210
   1426.37817     602.9022     420.7536   1426.37817     602.9022     420.7536
   1426.36292     605.5596     421.6248   1426.36292     605.5596     421.6248
   1426.34766     609.3811     423.3989   1426.34766     609.3811     423.3989
   1426.33240     612.1895     425.4097   1426.33240     612.1895     425.4097
   1426.31714     615.6776     426.5155   1426.31714     615.6776     426.5155
   1426.30188     618.1284     428.3717   1426.30188     618.1284     428.3717
   1426.28662     621.6831     429.4593   1426.28662     621.6831     429.4593
   1426.27136     624.7075     430.9916   1426.27136     624.7075     430.9916
   1426.25610     627.9775     432.7080   1426.25610     627.9775     432.7080
   1426.24084     631.4247     434.2589   1426.24084     631.4247     434.2589
   1426.22559     633.3571     434.7149   1426.22559     633.3571     434.7149
   1426.21033     638.4507     437.5638   1426.21033     638.4507     437.5638
   1426.19507     641.1727     438.2863   1426.19507     641.1727     438.2863
   1426.17981     643.6916     439.9356   1426.17981     643.6916     439.9356
   1426.16455     647.2369     441.4484   1426.16455     647.2369     441.4484
   1426.14929     649.6631     442.2700   1426.14929     649.6631     442.2700
   1426.13403     654.1678     444.2450   1426.13403     654.1678     444.2450
   1426.11877     657.0458     445.4053   1426.11877     657.0458     445.4053
   1426.10352     660.0406     446.6974   1426.10352     660.0406     446.6974
   1426.08826     662.3276     447.4451   1426.08826     662.3276     447.4451
   1426.07300     665.1511     448.7437   1426.07300     665.1511     448.7437
   1426.05774     668.6466     450.5034   1426.05774     668.6466     450.5034
   1426.04248     670.9357     450.9142   1426.04248     670.9357     450.9142
   1426.02722     674.4641     452.4473   1426.02722     674.4641     452.4473
   1426.01196     676.5728     452.9426   1426.01196     676.5728     452.9426
   1425.99670     679.8084     454.8953   1425.99670     679.8084     454.8953
   1425.98145     682.5706     456.1691   1425.98145     682.5706     456.1691
   1425.96619     684.9795     457.7563   1425.96619     684.9795     457.7563
   1425.95093     687.3060     458.7633   1425.95093     687.3060     458.7633
   1425.93567     691.5770     459.6697   1425.93567     691.5770     459.6697
   1425.92041     693.4260     460.4852   1425.92041     693.4260     460.4852
   1425.90515     696.4393     461.7198   1425.90515     696.4393     461.7198
   1425.88989     697.5688     463.3059   1425.88989     697.5688     463.3059
   1425.87463     700.6737     463.2534   1425.87463     700.6737     463.2534
   1425.85938     705.2305     465.2970   1425.85938     705.2305     465.2970
   1425.84412     706.6416     466.0422   1425.84412     706.6416     466.0422
   1425.82886     709.0989     467.3393   1425.82886     709.0989     467.3393
   1425.81360     711.4003     467.2912   1425.81360     711.4003     467.2912
   1425.79834     713.9442     469.6738   1425.79834     713.9442     469.6738
   1425.78308     715.4510     469.7570   1425.78308     715.4510     469.7570
   1425.76782     718.0629     470.8620   1425.76782     718.0629     470.8620
   1425.75256     720.9382     471.4786   1425.75256     720.9382     471.4786
   1425.73730     723.1850     472.2293   1425.73730     723.1850     472.2293
   1425.72205     725.4196     473.4099   1425.72205     725.4196     473.4099
   1425.70679     726.9810     473.9041   1425.70679     726.9810     473.9041
   1425.69153     729.4652     475.2613   1425.69153     729.4652     475.2613
   1425.67627     731.7374     476.1085   1425.67627     731.7374     476.1085
   1425.66101     734.3660     477.8432   1425.66101     734.3660     477.8432
   1425.64575     736.2358     477.5541   1425.64575     736.2358     477.5541
   1425.63049     738.4539     479.2712   1425.63049     738.4539     479.2712
   1425.61523     740.5179     479.5639   1425.61523     740.5179     479.5639
   1425.59998     742.6954     480.8499   1425.59998     742.6954     480.8499
   1425.58472     745.4027     481.4979   1425.58472     745.4027     481.4979
   1425.56946     745.5630     481.7954   1425.56946     745.5630     481.7954
   1425.55420     748.0170     482.9336   1425.55420     748.0170     482.9336
   1425.53894     748.7709     483.5522   1425.53894     748.7709     483.5522
   1425.52368     750.8101     484.2233   1425.52368     750.8101     484.2233
   1425.50842     752.8578     484.9006   1425.50842     752.8578     484.9006
   1425.49316     753.8519     485.5837   1425.49316     753.8519     485.5837
   1425.47791     754.2532     486.5200   1425.47791     754.2532     486.5200
   1425.46265     756.9361     487.8148   1425.46265     756.9361     487.8148
   1425.44739     760.7288     487.5928   1425.44739     760.7288     487.5928
   1425.43213     761.8657     489.0695   1425.43213     761.8657     489.0695
   1425.41687     764.3969     489.7125   1425.41687     764.3969     489.7125
   1425.40161     763.2454     490.1685   1425.40161     763.2454     490.1685
   1425.38635     766.0017     490.5659   1425.38635     766.0017     490.5659
   1425.37109     765.9083     492.0222   1425.37109     765.9083     492.0222
   1425.35583     768.4096     491.7337   1425.35583     768.4096     491.7337
   1425.34058     770.0327     492.4688   1425.34058     770.0327     492.4688
   1425.32532     771.8263     492.4546   1425.32532     771.8263     492.4546
   1425.31006     771.8524     493.3300   1425.31006     771.8524     493.3300
   1425.29480     772.5353     492.9605   1425.29480     772.5353     492.9605
   1425.27954     774.6184     494.7710   1425.27954     774.6184     494.7710
   1425.26428     775.0129     495.8439   1425.26428     775.0129     495.8439
   1425.24902     776.9489     495.5464   1425.24902     776.9489     495.5464
   1425.23376     776.5872     496.7440   1425.23376     776.5872     496.7440
   1425.21851     778.2064     496.4526   1425.21851     778.2064     496.4526
   1425.20325     780.1370     497.9179   1425.20325     780.1370     497.9179
   1425.18799     780.9645     497.9183   1425.18799     780.9645     497.9183
   1425.17273     782.1387     498.8350   1425.17273     782.1387     498.8350
   1425.15747     780.9115     499.2654   1425.15747     780.9115     499.2654
   1425.14221     783.8181     500.6098   1425.14221     783.8181     500.6098
   1425.12695     783.2255     500.1308   1425.12695     783.2255     500.1308
   1425.11169     784.5238     499.5096   1425.11169     784.5238     499.5096
   1425.09644     785.8254     500.4380   1425.09644     785.8254     500.4380
   1425.08118     785.9204     501.8868   1425.08118     785.9204     501.8868
   1425.06592     786.3896     501.8265   1425.06592     786.3896     501.8265
   1425.05066     787.1730     502.5018   1425.05066     787.1730     502.5018
   1425.03540     789.4999     502.4384   1425.03540     789.4999     502.4384
   1425.02014     788.0352     502.1945   1425.02014     788.0352     502.1945
   1425.00488     789.3964     504.0489   1425.00488     789.3964     504.0489
   1424.98962     790.0912     503.7569   1424.98962     790.0912     503.7569
   1424.97437     789.3952     504.6334   1424.97437     789.3952     504.6334
   1424.95911     790.9020     505.0719   1424.95911     790.9020     505.0719
   1424.94385     791.5502     505.3405   1424.94385     791.5502     505.3405
   1424.92859     791.3210     505.5693   1424.92859     791.3210     505.5693
   1424.91333     790.9278     505.4268   1424.91333     790.9278     505.4268
   1424.89807     792.4503     505.2194   1424.89807     792.4503     505.2194
   1424.88281     790.9763     506.5487   1424.88281     790.9763     506.5487
   1424.86755     793.1788     506.4936   1424.86755     793.1788     506.4936
   1424.85229     792.5915     507.6089   1424.85229     792.5915     507.6089
   1424.83704     792.8026     507.6754   1424.83704     792.8026     507.6754
   1424.82178     792.8289     508.2668   1424.82178     792.8289     508.2668
   1424.80652     793.2612     507.8470   1424.80652     793.2612     507.8470
   1424.79126     793.3024     507.9336   1424.79126     793.3024     507.9336
   1424.77600     793.5486     508.8514   1424.77600     793.5486     508.8514
   1424.76074     793.5779     509.3885   1424.76074     793.5779     509.3885
   1424.74548     793.9555     509.2672   1424.74548     793.9555     509.2672
   1424.73022     793.6588     509.5992   1424.73022     793.6588     509.5992
   1424.71497     792.3364     510.5311   1424.71497     792.3364     510.5311
   1424.69971     793.5038     509.6044   1424.69971     793.5038     509.6044
   1424.68445     793.7601     510.6450   1424.68445     793.7601     510.6450
   1424.66919     794.2242     511.1786   1424.66919     794.2242     511.1786
   1424.65393     792.8835     511.6299   1424.65393     792.8835     511.6299
   1424.63867     794.8754     510.7597   1424.63867     794.8754     510.7597
   1424.62341     792.8659     511.8654   1424.62341     792.8659     511.8654
   1424.60815     793.2249     511.5709   1424.60815     793.2249     511.5709
   1424.59290     793.1103     511.8872   1424.59290     793.1103     511.8872
   1424.57764     791.3373     512.7437   1424.57764     791.3373     512.7437
   1424.56238     790.9098     512.9386   1424.56238     790.9098     512.9386
   1424.54712     791.2922     512.4555   1424.54712     791.2922     512.4555
   1424.53186     790.7224     512.8441   1424.53186     790.7224     512.8441
   1424.51660     791.7728     512.8948   1424.51660     791.7728     512.8948
   1424.50134     789.8091     512.7473   1424.50134     789.8091     512.7473
   1424.48608     789.5032     513.0261   1424.48608     789.5032     513.0261
   1424.47083     789.5182     514.1542   1424.47083     789.5182     514.1542
   1424.45557     787.6016     514.5607   1424.45557     787.6016     514.5607
   1424.44031     788.1198     513.8182   1424.44031     788.1198     513.8182
   1424.42505     788.4724     514.4106   1424.42505     788.4724     514.4106
   1424.40979     788.5350     514.7520   1424.40979     788.5350     514.7520
   1424.39453     788.7346     513.7965   1424.39453     788.7346     513.7965
   1424.37927     786.8489     515.0731   1424.37927     786.8489     515.0731
   1424.36401     787.9088     515.5104   1424.36401     787.9088     515.5104
   1424.34875     787.0986     514.6094   1424.34875     787.0986     514.6094
   1424.33350     786.4874     515.2719   1424.33350     786.4874     515.2719
   1424.31824     784.8653     515.3220   1424.31824     784.8653     515.3220
   1424.30298     785.0037     516.1240   1424.30298     785.0037     516.1240
   1424.28772     784.1926     515.7585   1424.28772     784.1926     515.7585
   1424.27246     783.5522     515.9030   1424.27246     783.5522     515.9030
   1424.25720     781.8470     515.5423   1424.25720     781.8470     515.5423
   1424.24194     782.4753     515.6075   1424.24194     782.4753     515.6075
   1424.22668     780.9380     516.2476   1424.22668     780.9380     516.2476
   1424.21143     781.2446     515.9926   1424.21143     781.2446     515.9926
   1424.19617     779.6163     515.5304   1424.19617     779.6163     515.5304
   1424.18091     779.4449     516.3234   1424.18091     779.4449     516.3234
   1424.16565     779.4467     516.2734   1424.16565     779.4467     516.2734
