#     FILENAME=!Skynet_57528_lach-cc-242_20658_21019.cyb.fits
#     BASENAME=Skynet_57528_lach-cc-242_20658_21019
#     SRC_NAME=lach-cc-242
#     OBSERVER=ccmadison16_9505
#     DATE_OBS=2016-05-20T19:13:53.750
#        OBSID=20658
#      SCANNUM=21019
#          MJD=57528.8024
#          UTC=69322
#     SCANTYPE=track
#     DATAMODE=HIRES
#     TUNEFREQ=1420.0000
# Actual_FREQ1=1420.0000
# Actual_FREQ2=1420.0000
#    LO1Tuning=6870.000
#     RFFILTER=1355_1435
#        OBSBW=-15.6250
#        NCHAN=1024 
#        FOCUS=37.0709
#           RA=07:48:24.07
#          DEC=-25:37:09.44
#      RA(hrs)=7.806700
#     DEC(deg)=-25.619300
#    AZIM(deg)=151.036
#    ELEV(deg)=19.953
#     IFattens=11.00, 10.00
#      WARNING=None
#    TCAL_XL1=7.9635
#    TCAL_YR1=9.1340
#    TCAL_XL2=7.9635
#    TCAL_YR2=9.1340
#     TRX_XL1=11.7060
#     TRX_YR1=11.7060
#     TRX_XL2=11.7060
#     TRX_YR2=11.7060
#        TAVE=1.0000
#Freq1(MHz)          XL1          YR1  Freq2(MHz)          XL2          YR2 

   1427.81250     304.2400     244.9951   1427.81250     304.2400     244.9951
   1427.79724     304.5307     245.5455   1427.79724     304.5307     245.5455
   1427.78198     305.3938     245.8488   1427.78198     305.3938     245.8488
   1427.76672     305.9466     246.0054   1427.76672     305.9466     246.0054
   1427.75146     306.2907     246.4327   1427.75146     306.2907     246.4327
   1427.73621     307.1463     247.0416   1427.73621     307.1463     247.0416
   1427.72095     308.1802     248.0336   1427.72095     308.1802     248.0336
   1427.70569     308.4844     248.6709   1427.70569     308.4844     248.6709
   1427.69043     309.9355     248.7709   1427.69043     309.9355     248.7709
   1427.67517     310.7363     249.8082   1427.67517     310.7363     249.8082
   1427.65991     311.6167     250.3701   1427.65991     311.6167     250.3701
   1427.64465     312.4031     251.3225   1427.64465     312.4031     251.3225
   1427.62939     313.9449     251.9330   1427.62939     313.9449     251.9330
   1427.61414     314.4192     252.7320   1427.61414     314.4192     252.7320
   1427.59888     315.6326     253.9486   1427.59888     315.6326     253.9486
   1427.58362     316.1857     254.3500   1427.58362     316.1857     254.3500
   1427.56836     317.3195     255.5935   1427.56836     317.3195     255.5935
   1427.55310     318.6530     256.3965   1427.55310     318.6530     256.3965
   1427.53784     320.5696     257.7888   1427.53784     320.5696     257.7888
   1427.52258     321.5752     257.9605   1427.52258     321.5752     257.9605
   1427.50732     323.1393     259.5833   1427.50732     323.1393     259.5833
   1427.49207     324.2274     260.6270   1427.49207     324.2274     260.6270
   1427.47681     325.8069     261.4197   1427.47681     325.8069     261.4197
   1427.46155     327.4437     263.0015   1427.46155     327.4437     263.0015
   1427.44629     328.0858     264.1518   1427.44629     328.0858     264.1518
   1427.43103     330.0155     265.3345   1427.43103     330.0155     265.3345
   1427.41577     331.0217     266.1796   1427.41577     331.0217     266.1796
   1427.40051     332.9328     267.8758   1427.40051     332.9328     267.8758
   1427.38525     334.9972     269.2647   1427.38525     334.9972     269.2647
   1427.37000     336.5585     270.2517   1427.37000     336.5585     270.2517
   1427.35474     337.9711     271.3064   1427.35474     337.9711     271.3064
   1427.33948     339.7399     272.8084   1427.33948     339.7399     272.8084
   1427.32422     341.7248     274.5010   1427.32422     341.7248     274.5010
   1427.30896     343.1968     275.7328   1427.30896     343.1968     275.7328
   1427.29370     345.2031     277.3702   1427.29370     345.2031     277.3702
   1427.27844     346.6108     278.5620   1427.27844     346.6108     278.5620
   1427.26318     348.6054     280.0229   1427.26318     348.6054     280.0229
   1427.24792     351.1496     282.0066   1427.24792     351.1496     282.0066
   1427.23267     352.4903     283.3821   1427.23267     352.4903     283.3821
   1427.21741     354.5076     285.1269   1427.21741     354.5076     285.1269
   1427.20215     356.2789     286.5072   1427.20215     356.2789     286.5072
   1427.18689     357.9643     288.0321   1427.18689     357.9643     288.0321
   1427.17163     359.6532     289.6763   1427.17163     359.6532     289.6763
   1427.15637     362.3141     291.7076   1427.15637     362.3141     291.7076
   1427.14111     364.4411     292.7812   1427.14111     364.4411     292.7812
   1427.12585     366.5343     295.2151   1427.12585     366.5343     295.2151
   1427.11060     369.1772     296.5094   1427.11060     369.1772     296.5094
   1427.09534     371.2632     298.4717   1427.09534     371.2632     298.4717
   1427.08008     372.8557     300.4239   1427.08008     372.8557     300.4239
   1427.06482     375.0155     301.9802   1427.06482     375.0155     301.9802
   1427.04956     377.4586     303.5190   1427.04956     377.4586     303.5190
   1427.03430     380.0603     305.9705   1427.03430     380.0603     305.9705
   1427.01904     381.6363     307.6160   1427.01904     381.6363     307.6160
   1427.00378     384.5208     309.1941   1427.00378     384.5208     309.1941
   1426.98853     386.3857     311.3540   1426.98853     386.3857     311.3540
   1426.97327     388.5573     313.1787   1426.97327     388.5573     313.1787
   1426.95801     390.9557     315.2935   1426.95801     390.9557     315.2935
   1426.94275     393.7609     316.9740   1426.94275     393.7609     316.9740
   1426.92749     395.5229     318.3661   1426.92749     395.5229     318.3661
   1426.91223     398.3373     321.0590   1426.91223     398.3373     321.0590
   1426.89697     400.0773     322.9557   1426.89697     400.0773     322.9557
   1426.88171     403.1612     325.4570   1426.88171     403.1612     325.4570
   1426.86646     405.0525     326.5495   1426.86646     405.0525     326.5495
   1426.85120     407.2873     328.7601   1426.85120     407.2873     328.7601
   1426.83594     410.0555     330.8689   1426.83594     410.0555     330.8689
   1426.82068     411.7397     332.7458   1426.82068     411.7397     332.7458
   1426.80542     414.8812     334.4857   1426.80542     414.8812     334.4857
   1426.79016     416.8207     337.0290   1426.79016     416.8207     337.0290
   1426.77490     419.3674     338.6178   1426.77490     419.3674     338.6178
   1426.75964     422.1219     340.8847   1426.75964     422.1219     340.8847
   1426.74438     424.5551     343.1062   1426.74438     424.5551     343.1062
   1426.72913     426.9373     344.7398   1426.72913     426.9373     344.7398
   1426.71387     429.0957     346.6758   1426.71387     429.0957     346.6758
   1426.69861     431.7477     349.1965   1426.69861     431.7477     349.1965
   1426.68335     434.3618     351.1931   1426.68335     434.3618     351.1931
   1426.66809     436.7358     352.8461   1426.66809     436.7358     352.8461
   1426.65283     439.7985     354.3690   1426.65283     439.7985     354.3690
   1426.63757     442.2963     357.8136   1426.63757     442.2963     357.8136
   1426.62231     444.9589     359.9448   1426.62231     444.9589     359.9448
   1426.60706     446.6057     361.3963   1426.60706     446.6057     361.3963
   1426.59180     449.1436     363.4775   1426.59180     449.1436     363.4775
   1426.57654     451.8101     365.7115   1426.57654     451.8101     365.7115
   1426.56128     453.7857     367.0098   1426.56128     453.7857     367.0098
   1426.54602     456.4997     369.7740   1426.54602     456.4997     369.7740
   1426.53076     458.4739     371.4889   1426.53076     458.4739     371.4889
   1426.51550     460.7025     373.5486   1426.51550     460.7025     373.5486
   1426.50024     463.6187     376.1003   1426.50024     463.6187     376.1003
   1426.48499     466.1982     377.8167   1426.48499     466.1982     377.8167
   1426.46973     468.4463     379.8914   1426.46973     468.4463     379.8914
   1426.45447     471.0591     381.7505   1426.45447     471.0591     381.7505
   1426.43921     474.3196     384.3623   1426.43921     474.3196     384.3623
   1426.42395     476.1463     386.1375   1426.42395     476.1463     386.1375
   1426.40869     478.6801     388.5117   1426.40869     478.6801     388.5117
   1426.39343     480.8509     390.8339   1426.39343     480.8509     390.8339
   1426.37817     482.9120     392.6890   1426.37817     482.9120     392.6890
   1426.36292     484.8734     394.4602   1426.36292     484.8734     394.4602
   1426.34766     487.9588     397.0414   1426.34766     487.9588     397.0414
   1426.33240     489.9562     399.1849   1426.33240     489.9562     399.1849
   1426.31714     491.6656     401.0156   1426.31714     491.6656     401.0156
   1426.30188     494.8654     403.0191   1426.30188     494.8654     403.0191
   1426.28662     497.2619     405.2744   1426.28662     497.2619     405.2744
   1426.27136     499.9889     407.1738   1426.27136     499.9889     407.1738
   1426.25610     502.3412     409.8505   1426.25610     502.3412     409.8505
   1426.24084     503.7993     411.5189   1426.24084     503.7993     411.5189
   1426.22559     505.9806     413.3778   1426.22559     505.9806     413.3778
   1426.21033     509.1504     414.9238   1426.21033     509.1504     414.9238
   1426.19507     511.4131     417.5290   1426.19507     511.4131     417.5290
   1426.17981     512.5969     418.9303   1426.17981     512.5969     418.9303
   1426.16455     515.7776     421.5514   1426.16455     515.7776     421.5514
   1426.14929     517.4249     422.5533   1426.14929     517.4249     422.5533
   1426.13403     519.7578     424.6501   1426.13403     519.7578     424.6501
   1426.11877     521.4065     426.4130   1426.11877     521.4065     426.4130
   1426.10352     522.9063     428.8213   1426.10352     522.9063     428.8213
   1426.08826     524.3491     430.8365   1426.08826     524.3491     430.8365
   1426.07300     527.4384     432.1794   1426.07300     527.4384     432.1794
   1426.05774     529.0884     433.9304   1426.05774     529.0884     433.9304
   1426.04248     530.8381     436.5164   1426.04248     530.8381     436.5164
   1426.02722     532.9108     438.0568   1426.02722     532.9108     438.0568
   1426.01196     535.3334     439.1711   1426.01196     535.3334     439.1711
   1425.99670     537.4437     441.4674   1425.99670     537.4437     441.4674
   1425.98145     538.7607     442.7997   1425.98145     538.7607     442.7997
   1425.96619     540.6399     445.0078   1425.96619     540.6399     445.0078
   1425.95093     542.6326     446.8531   1425.95093     542.6326     446.8531
   1425.93567     545.2366     448.3566   1425.93567     545.2366     448.3566
   1425.92041     546.4716     449.5418   1425.92041     546.4716     449.5418
   1425.90515     548.3800     452.0009   1425.90515     548.3800     452.0009
   1425.88989     549.7613     452.9965   1425.88989     549.7613     452.9965
   1425.87463     551.3587     455.0707   1425.87463     551.3587     455.0707
   1425.85938     553.1756     456.7509   1425.85938     553.1756     456.7509
   1425.84412     554.3741     458.5262   1425.84412     554.3741     458.5262
   1425.82886     556.8208     460.3952   1425.82886     556.8208     460.3952
   1425.81360     558.6633     462.1053   1425.81360     558.6633     462.1053
   1425.79834     562.8481     466.1159   1425.79834     562.8481     466.1159
   1425.78308     561.3160     466.0423   1425.78308     561.3160     466.0423
   1425.76782     562.5294     467.0181   1425.76782     562.5294     467.0181
   1425.75256     564.7888     468.5096   1425.75256     564.7888     468.5096
   1425.73730     566.0389     469.8382   1425.73730     566.0389     469.8382
   1425.72205     567.4550     471.2711   1425.72205     567.4550     471.2711
   1425.70679     569.0626     472.8865   1425.70679     569.0626     472.8865
   1425.69153     570.8417     475.1684   1425.69153     570.8417     475.1684
   1425.67627     571.5114     476.3024   1425.67627     571.5114     476.3024
   1425.66101     572.9205     477.2527   1425.66101     572.9205     477.2527
   1425.64575     574.9564     479.6697   1425.64575     574.9564     479.6697
   1425.63049     576.3212     481.4557   1425.63049     576.3212     481.4557
   1425.61523     578.2330     483.3533   1425.61523     578.2330     483.3533
   1425.59998     578.6604     484.3069   1425.59998     578.6604     484.3069
   1425.58472     580.5958     484.9616   1425.58472     580.5958     484.9616
   1425.56946     581.2150     487.3421   1425.56946     581.2150     487.3421
   1425.55420     582.1110     488.2643   1425.55420     582.1110     488.2643
   1425.53894     584.3340     489.6449   1425.53894     584.3340     489.6449
   1425.52368     585.3831     491.5497   1425.52368     585.3831     491.5497
   1425.50842     587.2460     493.1680   1425.50842     587.2460     493.1680
   1425.49316     586.9129     495.4365   1425.49316     586.9129     495.4365
   1425.47791     587.8805     496.5450   1425.47791     587.8805     496.5450
   1425.46265     590.4848     497.4545   1425.46265     590.4848     497.4545
   1425.44739     591.6521     499.2398   1425.44739     591.6521     499.2398
   1425.43213     593.2831     500.8098   1425.43213     593.2831     500.8098
   1425.41687     594.0862     502.2400   1425.41687     594.0862     502.2400
   1425.40161     594.5207     503.3736   1425.40161     594.5207     503.3736
   1425.38635     595.9766     506.1694   1425.38635     595.9766     506.1694
   1425.37109     596.2944     506.1706   1425.37109     596.2944     506.1706
   1425.35583     597.5585     508.4622   1425.35583     597.5585     508.4622
   1425.34058     598.6592     510.0117   1425.34058     598.6592     510.0117
   1425.32532     598.0709     510.2227   1425.32532     598.0709     510.2227
   1425.31006     599.7272     511.2928   1425.31006     599.7272     511.2928
   1425.29480     600.8811     512.8489   1425.29480     600.8811     512.8489
   1425.27954     602.3945     514.5079   1425.27954     602.3945     514.5079
   1425.26428     603.5538     515.9230   1425.26428     603.5538     515.9230
   1425.24902     603.3030     517.2335   1425.24902     603.3030     517.2335
   1425.23376     603.1913     517.6191   1425.23376     603.1913     517.6191
   1425.21851     604.7133     519.4428   1425.21851     604.7133     519.4428
   1425.20325     605.2478     519.7155   1425.20325     605.2478     519.7155
   1425.18799     606.2464     522.1888   1425.18799     606.2464     522.1888
   1425.17273     607.3286     524.1175   1425.17273     607.3286     524.1175
   1425.15747     606.4036     523.5484   1425.15747     606.4036     523.5484
   1425.14221     607.4984     524.2147   1425.14221     607.4984     524.2147
   1425.12695     609.2697     525.0785   1425.12695     609.2697     525.0785
   1425.11169     609.0042     527.5618   1425.11169     609.0042     527.5618
   1425.09644     609.6974     527.4349   1425.09644     609.6974     527.4349
   1425.08118     610.8229     529.7692   1425.08118     610.8229     529.7692
   1425.06592     610.6625     529.7456   1425.06592     610.6625     529.7456
   1425.05066     610.4987     530.5876   1425.05066     610.4987     530.5876
   1425.03540     610.4671     531.2299   1425.03540     610.4671     531.2299
   1425.02014     611.5890     532.6058   1425.02014     611.5890     532.6058
   1425.00488     612.8534     534.8328   1425.00488     612.8534     534.8328
   1424.98962     612.3842     534.6435   1424.98962     612.3842     534.6435
   1424.97437     613.9451     535.1659   1424.97437     613.9451     535.1659
   1424.95911     614.1584     536.7521   1424.95911     614.1584     536.7521
   1424.94385     613.5135     538.0623   1424.94385     613.5135     538.0623
   1424.92859     614.9725     538.9210   1424.92859     614.9725     538.9210
   1424.91333     614.8108     540.1140   1424.91333     614.8108     540.1140
   1424.89807     616.3041     540.4508   1424.89807     616.3041     540.4508
   1424.88281     615.5375     542.6105   1424.88281     615.5375     542.6105
   1424.86755     615.3796     543.7260   1424.86755     615.3796     543.7260
   1424.85229     615.3036     544.2959   1424.85229     615.3036     544.2959
   1424.83704     615.6104     545.1478   1424.83704     615.6104     545.1478
   1424.82178     616.4779     546.1979   1424.82178     616.4779     546.1979
   1424.80652     616.5675     547.3510   1424.80652     616.5675     547.3510
   1424.79126     616.1726     547.5546   1424.79126     616.1726     547.5546
   1424.77600     617.5407     549.2549   1424.77600     617.5407     549.2549
   1424.76074     617.6209     548.9345   1424.76074     617.6209     548.9345
   1424.74548     617.0971     550.7659   1424.74548     617.0971     550.7659
   1424.73022     617.6985     552.1479   1424.73022     617.6985     552.1479
   1424.71497     618.0595     552.5227   1424.71497     618.0595     552.5227
   1424.69971     618.3574     552.8655   1424.69971     618.3574     552.8655
   1424.68445     617.7230     554.1104   1424.68445     617.7230     554.1104
   1424.66919     618.1387     554.7846   1424.66919     618.1387     554.7846
   1424.65393     618.7091     556.6334   1424.65393     618.7091     556.6334
   1424.63867     618.4996     558.2936   1424.63867     618.4996     558.2936
   1424.62341     617.9159     557.4495   1424.62341     617.9159     557.4495
   1424.60815     619.1218     558.8530   1424.60815     619.1218     558.8530
   1424.59290     618.4324     559.8419   1424.59290     618.4324     559.8419
   1424.57764     618.5749     559.4960   1424.57764     618.5749     559.4960
   1424.56238     618.7914     560.6552   1424.56238     618.7914     560.6552
   1424.54712     617.9430     561.4620   1424.54712     617.9430     561.4620
   1424.53186     618.8923     562.3152   1424.53186     618.8923     562.3152
   1424.51660     619.0804     563.3666   1424.51660     619.0804     563.3666
   1424.50134     619.6196     563.6694   1424.50134     619.6196     563.6694
   1424.48608     619.0204     564.4025   1424.48608     619.0204     564.4025
   1424.47083     619.3125     565.4893   1424.47083     619.3125     565.4893
   1424.45557     619.3489     566.3686   1424.45557     619.3489     566.3686
   1424.44031     619.1119     567.6942   1424.44031     619.1119     567.6942
   1424.42505     619.4456     566.9063   1424.42505     619.4456     566.9063
   1424.40979     619.2079     568.2747   1424.40979     619.2079     568.2747
   1424.39453     618.7947     569.0943   1424.39453     618.7947     569.0943
   1424.37927     618.6874     569.7103   1424.37927     618.6874     569.7103
   1424.36401     618.8692     570.5580   1424.36401     618.8692     570.5580
   1424.34875     618.5754     570.9019   1424.34875     618.5754     570.9019
   1424.33350     619.3859     571.0746   1424.33350     619.3859     571.0746
   1424.31824     620.0692     571.9719   1424.31824     620.0692     571.9719
   1424.30298     619.0974     573.1296   1424.30298     619.0974     573.1296
   1424.28772     618.8594     573.1523   1424.28772     618.8594     573.1523
   1424.27246     618.2578     573.5016   1424.27246     618.2578     573.5016
   1424.25720     617.6228     573.7618   1424.25720     617.6228     573.7618
   1424.24194     618.0267     574.5286   1424.24194     618.0267     574.5286
   1424.22668     618.2466     575.6969   1424.22668     618.2466     575.6969
   1424.21143     618.1569     576.4796   1424.21143     618.1569     576.4796
   1424.19617     617.9556     577.0537   1424.19617     617.9556     577.0537
   1424.18091     617.8575     577.0721   1424.18091     617.8575     577.0721
   1424.16565     618.0644     577.8026   1424.16565     618.0644     577.8026
