#     FILENAME=!Skynet_57533_lach-hhg-196-2_20799_21207.cyb.fits
#     BASENAME=Skynet_57533_lach-hhg-196-2_20799_21207
#     SRC_NAME=lach-hhg-196-2
#     OBSERVER=ccmadison16_9505
#     DATE_OBS=2016-05-25T18:31:46.370
#        OBSID=20799
#      SCANNUM=21207
#          MJD=57533.7731
#          UTC=66796
#     SCANTYPE=track
#     DATAMODE=HIRES
#     TUNEFREQ=1420.0000
# Actual_FREQ1=1420.0000
# Actual_FREQ2=1420.0000
#    LO1Tuning=6870.000
#     RFFILTER=1355_1435
#        OBSBW=-15.6250
#        NCHAN=1024 
#        FOCUS=37.0709
#           RA=06:19:46.17
#          DEC=15:01:17.29
#      RA(hrs)=6.329500
#     DEC(deg)=15.021500
#    AZIM(deg)=149.281
#    ELEV(deg)=63.678
#     IFattens=10.00, 9.00
#      WARNING=None
#    TCAL_XL1=7.9635
#    TCAL_YR1=9.1340
#    TCAL_XL2=7.9635
#    TCAL_YR2=9.1340
#     TRX_XL1=11.7060
#     TRX_YR1=11.7060
#     TRX_XL2=11.7060
#     TRX_YR2=11.7060
#        TAVE=1.0000
#Freq1(MHz)          XL1          YR1  Freq2(MHz)          XL2          YR2 

   1427.81250     368.3166     262.7533   1427.81250     368.3166     262.7533
   1427.79724     368.9514     263.9308   1427.79724     368.9514     263.9308
   1427.78198     369.3715     264.9727   1427.78198     369.3715     264.9727
   1427.76672     370.8067     265.6757   1427.76672     370.8067     265.6757
   1427.75146     370.6243     266.4895   1427.75146     370.6243     266.4895
   1427.73621     371.5642     267.8605   1427.73621     371.5642     267.8605
   1427.72095     372.7737     268.8699   1427.72095     372.7737     268.8699
   1427.70569     373.3406     270.1891   1427.70569     373.3406     270.1891
   1427.69043     374.4853     271.6286   1427.69043     374.4853     271.6286
   1427.67517     375.0739     272.0865   1427.67517     375.0739     272.0865
   1427.65991     376.0034     273.6470   1427.65991     376.0034     273.6470
   1427.64465     377.1386     274.9009   1427.64465     377.1386     274.9009
   1427.62939     378.2943     275.6990   1427.62939     378.2943     275.6990
   1427.61414     379.4844     277.3532   1427.61414     379.4844     277.3532
   1427.59888     380.9695     278.0823   1427.59888     380.9695     278.0823
   1427.58362     382.5605     280.1392   1427.58362     382.5605     280.1392
   1427.56836     383.6844     281.1984   1427.56836     383.6844     281.1984
   1427.55310     384.8233     282.8263   1427.55310     384.8233     282.8263
   1427.53784     386.0052     284.4249   1427.53784     386.0052     284.4249
   1427.52258     387.3500     285.1184   1427.52258     387.3500     285.1184
   1427.50732     389.7923     287.3778   1427.50732     389.7923     287.3778
   1427.49207     391.0633     288.7082   1427.49207     391.0633     288.7082
   1427.47681     392.2570     289.7878   1427.47681     392.2570     289.7878
   1427.46155     393.5014     291.6187   1427.46155     393.5014     291.6187
   1427.44629     396.1083     293.2620   1427.44629     396.1083     293.2620
   1427.43103     397.5443     295.2202   1427.43103     397.5443     295.2202
   1427.41577     400.5771     296.6617   1427.41577     400.5771     296.6617
   1427.40051     401.8161     298.1493   1427.40051     401.8161     298.1493
   1427.38525     403.7595     299.9492   1427.38525     403.7595     299.9492
   1427.37000     405.6127     302.2340   1427.37000     405.6127     302.2340
   1427.35474     408.2885     303.3313   1427.35474     408.2885     303.3313
   1427.33948     409.5004     305.1617   1427.33948     409.5004     305.1617
   1427.32422     411.3376     306.8637   1427.32422     411.3376     306.8637
   1427.30896     414.6431     307.9887   1427.30896     414.6431     307.9887
   1427.29370     416.4229     310.3127   1427.29370     416.4229     310.3127
   1427.27844     418.7067     311.8879   1427.27844     418.7067     311.8879
   1427.26318     421.1320     314.0040   1427.26318     421.1320     314.0040
   1427.24792     423.3657     315.3531   1427.24792     423.3657     315.3531
   1427.23267     425.6638     317.2193   1427.23267     425.6638     317.2193
   1427.21741     428.1666     319.3187   1427.21741     428.1666     319.3187
   1427.20215     430.3083     321.4822   1427.20215     430.3083     321.4822
   1427.18689     433.2171     323.2317   1427.18689     433.2171     323.2317
   1427.17163     436.0252     325.1314   1427.17163     436.0252     325.1314
   1427.15637     437.9913     326.8958   1427.15637     437.9913     326.8958
   1427.14111     440.9400     328.2871   1427.14111     440.9400     328.2871
   1427.12585     443.6072     330.5791   1427.12585     443.6072     330.5791
   1427.11060     446.0441     332.8414   1427.11060     446.0441     332.8414
   1427.09534     449.0941     334.6046   1427.09534     449.0941     334.6046
   1427.08008     452.5201     336.2448   1427.08008     452.5201     336.2448
   1427.06482     454.3049     338.2364   1427.06482     454.3049     338.2364
   1427.04956     457.9689     340.0282   1427.04956     457.9689     340.0282
   1427.03430     460.7901     342.4448   1427.03430     460.7901     342.4448
   1427.01904     463.8047     343.5350   1427.01904     463.8047     343.5350
   1427.00378     466.5570     346.3017   1427.00378     466.5570     346.3017
   1426.98853     468.6350     348.2904   1426.98853     468.6350     348.2904
   1426.97327     472.6450     349.8927   1426.97327     472.6450     349.8927
   1426.95801     475.4751     352.3928   1426.95801     475.4751     352.3928
   1426.94275     478.3863     353.9666   1426.94275     478.3863     353.9666
   1426.92749     481.5493     356.3114   1426.92749     481.5493     356.3114
   1426.91223     485.0744     357.7465   1426.91223     485.0744     357.7465
   1426.89697     487.6864     360.0792   1426.89697     487.6864     360.0792
   1426.88171     491.0297     362.2504   1426.88171     491.0297     362.2504
   1426.86646     494.3362     363.6653   1426.86646     494.3362     363.6653
   1426.85120     497.1011     365.6967   1426.85120     497.1011     365.6967
   1426.83594     500.6410     368.3648   1426.83594     500.6410     368.3648
   1426.82068     503.6052     369.3000   1426.82068     503.6052     369.3000
   1426.80542     507.3594     371.8512   1426.80542     507.3594     371.8512
   1426.79016     509.8465     373.8518   1426.79016     509.8465     373.8518
   1426.77490     513.8983     375.8320   1426.77490     513.8983     375.8320
   1426.75964     516.3094     377.2949   1426.75964     516.3094     377.2949
   1426.74438     520.4505     379.3716   1426.74438     520.4505     379.3716
   1426.72913     523.4523     381.8234   1426.72913     523.4523     381.8234
   1426.71387     527.0165     383.6173   1426.71387     527.0165     383.6173
   1426.69861     529.9291     385.7723   1426.69861     529.9291     385.7723
   1426.68335     533.1104     387.0159   1426.68335     533.1104     387.0159
   1426.66809     536.5778     389.6584   1426.66809     536.5778     389.6584
   1426.65283     541.2237     391.5464   1426.65283     541.2237     391.5464
   1426.63757     543.8317     393.2812   1426.63757     543.8317     393.2812
   1426.62231     548.5879     399.6951   1426.62231     548.5879     399.6951
   1426.60706     551.3231     398.4229   1426.60706     551.3231     398.4229
   1426.59180     553.6699     397.8419   1426.59180     553.6699     397.8419
   1426.57654     557.2438     400.2649   1426.57654     557.2438     400.2649
   1426.56128     561.3430     401.7367   1426.56128     561.3430     401.7367
   1426.54602     564.6548     404.4018   1426.54602     564.6548     404.4018
   1426.53076     567.7721     405.4382   1426.53076     567.7721     405.4382
   1426.51550     571.1594     407.0510   1426.51550     571.1594     407.0510
   1426.50024     573.2724     409.6740   1426.50024     573.2724     409.6740
   1426.48499     577.8570     411.2745   1426.48499     577.8570     411.2745
   1426.46973     581.3541     412.2730   1426.46973     581.3541     412.2730
   1426.45447     583.3018     414.2447   1426.45447     583.3018     414.2447
   1426.43921     589.3516     416.1335   1426.43921     589.3516     416.1335
   1426.42395     591.4013     417.5515   1426.42395     591.4013     417.5515
   1426.40869     595.1799     419.2164   1426.40869     595.1799     419.2164
   1426.39343     597.7034     420.9232   1426.39343     597.7034     420.9232
   1426.37817     600.9893     422.3972   1426.37817     600.9893     422.3972
   1426.36292     605.3925     424.5135   1426.36292     605.3925     424.5135
   1426.34766     607.6301     426.6530   1426.34766     607.6301     426.6530
   1426.33240     611.9314     427.1038   1426.33240     611.9314     427.1038
   1426.31714     613.7352     429.4702   1426.31714     613.7352     429.4702
   1426.30188     618.1854     430.6366   1426.30188     618.1854     430.6366
   1426.28662     621.5775     432.5067   1426.28662     621.5775     432.5067
   1426.27136     624.3004     433.9639   1426.27136     624.3004     433.9639
   1426.25610     628.1107     434.9780   1426.25610     628.1107     434.9780
   1426.24084     630.9397     436.3503   1426.24084     630.9397     436.3503
   1426.22559     633.6013     438.1581   1426.22559     633.6013     438.1581
   1426.21033     636.0028     439.4221   1426.21033     636.0028     439.4221
   1426.19507     639.9207     441.3171   1426.19507     639.9207     441.3171
   1426.17981     642.6090     442.5664   1426.17981     642.6090     442.5664
   1426.16455     646.7450     443.4991   1426.16455     646.7450     443.4991
   1426.14929     649.4884     444.7933   1426.14929     649.4884     444.7933
   1426.13403     652.7453     447.1312   1426.13403     652.7453     447.1312
   1426.11877     656.2858     448.1713   1426.11877     656.2858     448.1713
   1426.10352     658.3036     449.2292   1426.10352     658.3036     449.2292
   1426.08826     661.0709     449.8201   1426.08826     661.0709     449.8201
   1426.07300     664.4077     451.7936   1426.07300     664.4077     451.7936
   1426.05774     668.7601     453.9313   1426.05774     668.7601     453.9313
   1426.04248     671.2264     454.2643   1426.04248     671.2264     454.2643
   1426.02722     673.6606     455.8506   1426.02722     673.6606     455.8506
   1426.01196     677.0219     456.8314   1426.01196     677.0219     456.8314
   1425.99670     680.8618     458.1122   1425.99670     680.8618     458.1122
   1425.98145     682.1373     459.4713   1425.98145     682.1373     459.4713
   1425.96619     685.2441     460.6789   1425.96619     685.2441     460.6789
   1425.95093     688.2430     461.5971   1425.95093     688.2430     461.5971
   1425.93567     690.2849     462.4992   1425.93567     690.2849     462.4992
   1425.92041     693.2615     463.7585   1425.92041     693.2615     463.7585
   1425.90515     695.9057     464.7072   1425.90515     695.9057     464.7072
   1425.88989     699.1766     466.4305   1425.88989     699.1766     466.4305
   1425.87463     700.4875     467.1794   1425.87463     700.4875     467.1794
   1425.85938     704.4506     468.8975   1425.85938     704.4506     468.8975
   1425.84412     707.5275     468.9637   1425.84412     707.5275     468.9637
   1425.82886     708.2087     470.2109   1425.82886     708.2087     470.2109
   1425.81360     711.9590     470.9619   1425.81360     711.9590     470.9619
   1425.79834     713.1034     472.1671   1425.79834     713.1034     472.1671
   1425.78308     716.6747     473.1374   1425.78308     716.6747     473.1374
   1425.76782     719.3010     474.5999   1425.76782     719.3010     474.5999
   1425.75256     721.1411     475.1785   1425.75256     721.1411     475.1785
   1425.73730     722.8619     475.9736   1425.73730     722.8619     475.9736
   1425.72205     725.6096     477.1349   1425.72205     725.6096     477.1349
   1425.70679     726.4338     478.4496   1425.70679     726.4338     478.4496
   1425.69153     729.7787     478.9968   1425.69153     729.7787     478.9968
   1425.67627     732.3849     480.1081   1425.67627     732.3849     480.1081
   1425.66101     734.3156     480.2568   1425.66101     734.3156     480.2568
   1425.64575     737.3359     481.2571   1425.64575     737.3359     481.2571
   1425.63049     737.9573     482.3067   1425.63049     737.9573     482.3067
   1425.61523     740.8585     483.6768   1425.61523     740.8585     483.6768
   1425.59998     741.9556     483.9257   1425.59998     741.9556     483.9257
   1425.58472     744.2082     484.4272   1425.58472     744.2082     484.4272
   1425.56946     746.3329     485.8929   1425.56946     746.3329     485.8929
   1425.55420     747.2194     487.0853   1425.55420     747.2194     487.0853
   1425.53894     749.7365     487.2396   1425.53894     749.7365     487.2396
   1425.52368     751.5938     487.8012   1425.52368     751.5938     487.8012
   1425.50842     753.3704     488.1351   1425.50842     753.3704     488.1351
   1425.49316     754.8463     490.1621   1425.49316     754.8463     490.1621
   1425.47791     755.6180     490.3087   1425.47791     755.6180     490.3087
   1425.46265     757.6512     491.3362   1425.46265     757.6512     491.3362
   1425.44739     761.1569     491.4873   1425.44739     761.1569     491.4873
   1425.43213     762.1592     492.8394   1425.43213     762.1592     492.8394
   1425.41687     762.3691     493.5061   1425.41687     762.3691     493.5061
   1425.40161     764.4762     494.1388   1425.40161     764.4762     494.1388
   1425.38635     766.3317     494.6678   1425.38635     766.3317     494.6678
   1425.37109     766.7930     494.5393   1425.37109     766.7930     494.5393
   1425.35583     768.0897     495.8986   1425.35583     768.0897     495.8986
   1425.34058     769.4218     495.9055   1425.34058     769.4218     495.9055
   1425.32532     771.3456     497.1424   1425.32532     771.3456     497.1424
   1425.31006     772.8609     495.9449   1425.31006     772.8609     495.9449
   1425.29480     773.8223     497.7308   1425.29480     773.8223     497.7308
   1425.27954     775.3112     498.9744   1425.27954     775.3112     498.9744
   1425.26428     777.1121     499.0405   1425.26428     777.1121     499.0405
   1425.24902     777.8607     500.2395   1425.24902     777.8607     500.2395
   1425.23376     778.2226     500.4461   1425.23376     778.2226     500.4461
   1425.21851     780.8520     501.4359   1425.21851     780.8520     501.4359
   1425.20325     781.3879     501.6417   1425.20325     781.3879     501.6417
   1425.18799     780.3964     502.2679   1425.18799     780.3964     502.2679
   1425.17273     782.3860     502.1679   1425.17273     782.3860     502.1679
   1425.15747     784.3387     502.5496   1425.15747     784.3387     502.5496
   1425.14221     783.9016     504.5084   1425.14221     783.9016     504.5084
   1425.12695     784.7527     504.3272   1425.12695     784.7527     504.3272
   1425.11169     786.2833     504.7783   1425.11169     786.2833     504.7783
   1425.09644     786.4669     504.9622   1425.09644     786.4669     504.9622
   1425.08118     787.4161     505.7852   1425.08118     787.4161     505.7852
   1425.06592     789.4764     506.0350   1425.06592     789.4764     506.0350
   1425.05066     788.0378     506.5465   1425.05066     788.0378     506.5465
   1425.03540     789.2540     507.2317   1425.03540     789.2540     507.2317
   1425.02014     790.7457     507.3203   1425.02014     790.7457     507.3203
   1425.00488     790.5517     507.8048   1425.00488     790.5517     507.8048
   1424.98962     792.1108     508.7146   1424.98962     792.1108     508.7146
   1424.97437     791.9454     508.7661   1424.97437     791.9454     508.7661
   1424.95911     792.4740     509.1197   1424.95911     792.4740     509.1197
   1424.94385     793.5205     509.8854   1424.94385     793.5205     509.8854
   1424.92859     793.5469     510.1126   1424.92859     793.5469     510.1126
   1424.91333     792.7366     510.0152   1424.91333     792.7366     510.0152
   1424.89807     793.9436     510.3535   1424.89807     793.9436     510.3535
   1424.88281     794.9072     510.4238   1424.88281     794.9072     510.4238
   1424.86755     795.0507     511.2649   1424.86755     795.0507     511.2649
   1424.85229     794.7054     511.9987   1424.85229     794.7054     511.9987
   1424.83704     794.8699     512.7022   1424.83704     794.8699     512.7022
   1424.82178     795.4964     512.1048   1424.82178     795.4964     512.1048
   1424.80652     796.2944     512.8778   1424.80652     796.2944     512.8778
   1424.79126     795.3915     512.4639   1424.79126     795.3915     512.4639
   1424.77600     796.0349     513.1328   1424.77600     796.0349     513.1328
   1424.76074     796.5335     513.4311   1424.76074     796.5335     513.4311
   1424.74548     796.5695     514.6964   1424.74548     796.5695     514.6964
   1424.73022     797.0051     514.4041   1424.73022     797.0051     514.4041
   1424.71497     795.9088     514.5795   1424.71497     795.9088     514.5795
   1424.69971     795.8915     515.5906   1424.69971     795.8915     515.5906
   1424.68445     795.8839     515.2640   1424.68445     795.8839     515.2640
   1424.66919     795.8754     515.3224   1424.66919     795.8754     515.3224
   1424.65393     794.9561     515.0919   1424.65393     794.9561     515.0919
   1424.63867     796.8178     516.2318   1424.63867     796.8178     516.2318
   1424.62341     796.5543     515.2488   1424.62341     796.5543     515.2488
   1424.60815     794.9626     516.2163   1424.60815     794.9626     516.2163
   1424.59290     795.2177     516.7938   1424.59290     795.2177     516.7938
   1424.57764     794.9688     517.1355   1424.57764     794.9688     517.1355
   1424.56238     795.3187     518.0553   1424.56238     795.3187     518.0553
   1424.54712     795.0211     517.5339   1424.54712     795.0211     517.5339
   1424.53186     794.7753     518.1555   1424.53186     794.7753     518.1555
   1424.51660     794.2139     517.7437   1424.51660     794.2139     517.7437
   1424.50134     793.1185     518.3150   1424.50134     793.1185     518.3150
   1424.48608     793.0795     517.3503   1424.48608     793.0795     517.3503
   1424.47083     793.7071     518.4922   1424.47083     793.7071     518.4922
   1424.45557     793.6013     519.1440   1424.45557     793.6013     519.1440
   1424.44031     792.1447     518.7128   1424.44031     792.1447     518.7128
   1424.42505     792.5920     518.7827   1424.42505     792.5920     518.7827
   1424.40979     792.5349     519.5097   1424.40979     792.5349     519.5097
   1424.39453     791.0961     518.9996   1424.39453     791.0961     518.9996
   1424.37927     791.3958     519.6560   1424.37927     791.3958     519.6560
   1424.36401     789.5334     519.5583   1424.36401     789.5334     519.5583
   1424.34875     791.1791     519.5438   1424.34875     791.1791     519.5438
   1424.33350     791.0641     520.2050   1424.33350     791.0641     520.2050
   1424.31824     789.3843     520.4462   1424.31824     789.3843     520.4462
   1424.30298     786.6676     520.8402   1424.30298     786.6676     520.8402
   1424.28772     788.2293     519.9130   1424.28772     788.2293     519.9130
   1424.27246     786.5505     520.0528   1424.27246     786.5505     520.0528
   1424.25720     787.3750     520.7544   1424.25720     787.3750     520.7544
   1424.24194     786.7941     520.6680   1424.24194     786.7941     520.6680
   1424.22668     785.8372     520.8854   1424.22668     785.8372     520.8854
   1424.21143     785.9802     520.9810   1424.21143     785.9802     520.9810
   1424.19617     784.9318     519.8772   1424.19617     784.9318     519.8772
   1424.18091     783.5414     520.9419   1424.18091     783.5414     520.9419
   1424.16565     782.9316     521.2779   1424.16565     782.9316     521.2779
