#     FILENAME=!Skynet_57528_lach-cc-188_20582_21011.cyb.fits
#     BASENAME=Skynet_57528_lach-cc-188_20582_21011
#     SRC_NAME=lach-cc-188
#     OBSERVER=ccmadison16_9505
#     DATE_OBS=2016-05-20T18:56:14.560
#        OBSID=20582
#      SCANNUM=21011
#          MJD=57528.7901
#          UTC=68263
#     SCANTYPE=track
#     DATAMODE=HIRES
#     TUNEFREQ=1420.0000
# Actual_FREQ1=1420.0000
# Actual_FREQ2=1420.0000
#    LO1Tuning=6870.000
#     RFFILTER=1355_1435
#        OBSBW=-15.6250
#        NCHAN=1024 
#        FOCUS=37.0709
#           RA=06:03:32.51
#          DEC=22:02:04.47
#      RA(hrs)=6.059000
#     DEC(deg)=22.034600
#    AZIM(deg)=154.401
#    ELEV(deg)=72.089
#     IFattens=11.00, 10.00
#      WARNING=None
#    TCAL_XL1=7.9635
#    TCAL_YR1=9.1340
#    TCAL_XL2=7.9635
#    TCAL_YR2=9.1340
#     TRX_XL1=11.7060
#     TRX_YR1=11.7060
#     TRX_XL2=11.7060
#     TRX_YR2=11.7060
#        TAVE=1.0000
#Freq1(MHz)          XL1          YR1  Freq2(MHz)          XL2          YR2 

   1427.81250     302.7231     283.4285   1427.81250     302.7231     283.4285
   1427.79724     302.6935     284.7186   1427.79724     302.6935     284.7186
   1427.78198     303.1536     285.6848   1427.78198     303.1536     285.6848
   1427.76672     304.0536     286.8615   1427.76672     304.0536     286.8615
   1427.75146     304.7214     288.0187   1427.75146     304.7214     288.0187
   1427.73621     305.5000     289.3225   1427.73621     305.5000     289.3225
   1427.72095     306.6895     290.4937   1427.72095     306.6895     290.4937
   1427.70569     307.2371     291.6444   1427.70569     307.2371     291.6444
   1427.69043     307.3585     292.9589   1427.69043     307.3585     292.9589
   1427.67517     308.8680     294.2536   1427.67517     308.8680     294.2536
   1427.65991     309.4463     295.4115   1427.65991     309.4463     295.4115
   1427.64465     310.5895     296.7304   1427.64465     310.5895     296.7304
   1427.62939     310.7985     298.4646   1427.62939     310.7985     298.4646
   1427.61414     311.9565     299.1402   1427.61414     311.9565     299.1402
   1427.59888     313.3950     300.5560   1427.59888     313.3950     300.5560
   1427.58362     314.3020     302.3979   1427.58362     314.3020     302.3979
   1427.56836     315.3899     303.9961   1427.56836     315.3899     303.9961
   1427.55310     316.5737     305.0720   1427.55310     316.5737     305.0720
   1427.53784     317.9211     306.2588   1427.53784     317.9211     306.2588
   1427.52258     319.1541     308.1114   1427.52258     319.1541     308.1114
   1427.50732     319.7734     309.5530   1427.50732     319.7734     309.5530
   1427.49207     321.0229     311.0372   1427.49207     321.0229     311.0372
   1427.47681     322.9017     313.0545   1427.47681     322.9017     313.0545
   1427.46155     324.0513     314.3753   1427.46155     324.0513     314.3753
   1427.44629     325.6926     316.2475   1427.44629     325.6926     316.2475
   1427.43103     326.9858     317.5235   1427.43103     326.9858     317.5235
   1427.41577     328.6440     319.3886   1427.41577     328.6440     319.3886
   1427.40051     330.1945     321.1180   1427.40051     330.1945     321.1180
   1427.38525     331.4153     323.2382   1427.38525     331.4153     323.2382
   1427.37000     333.3574     323.9003   1427.37000     333.3574     323.9003
   1427.35474     335.1335     326.1579   1427.35474     335.1335     326.1579
   1427.33948     336.3919     327.5628   1427.33948     336.3919     327.5628
   1427.32422     338.0326     329.0486   1427.32422     338.0326     329.0486
   1427.30896     340.0016     331.3771   1427.30896     340.0016     331.3771
   1427.29370     341.7714     332.9882   1427.29370     341.7714     332.9882
   1427.27844     343.5504     335.0493   1427.27844     343.5504     335.0493
   1427.26318     345.0109     336.3422   1427.26318     345.0109     336.3422
   1427.24792     347.1888     338.4432   1427.24792     347.1888     338.4432
   1427.23267     348.7021     339.3116   1427.23267     348.7021     339.3116
   1427.21741     350.5468     342.0572   1427.21741     350.5468     342.0572
   1427.20215     353.0983     343.9937   1427.20215     353.0983     343.9937
   1427.18689     354.8615     345.5126   1427.18689     354.8615     345.5126
   1427.17163     356.3873     347.4775   1427.17163     356.3873     347.4775
   1427.15637     358.4888     348.6098   1427.15637     358.4888     348.6098
   1427.14111     360.7643     351.2853   1427.14111     360.7643     351.2853
   1427.12585     363.1418     352.4064   1427.12585     363.1418     352.4064
   1427.11060     364.6418     354.2278   1427.11060     364.6418     354.2278
   1427.09534     367.2054     356.1709   1427.09534     367.2054     356.1709
   1427.08008     369.2645     358.4399   1427.08008     369.2645     358.4399
   1427.06482     371.2559     360.0682   1427.06482     371.2559     360.0682
   1427.04956     373.3735     361.8585   1427.04956     373.3735     361.8585
   1427.03430     375.7431     364.0533   1427.03430     375.7431     364.0533
   1427.01904     377.8439     365.1134   1427.01904     377.8439     365.1134
   1427.00378     379.7876     368.0671   1427.00378     379.7876     368.0671
   1426.98853     382.4930     369.1031   1426.98853     382.4930     369.1031
   1426.97327     384.7230     371.6613   1426.97327     384.7230     371.6613
   1426.95801     386.9257     373.1917   1426.95801     386.9257     373.1917
   1426.94275     389.3310     374.8664   1426.94275     389.3310     374.8664
   1426.92749     391.3911     376.7287   1426.92749     391.3911     376.7287
   1426.91223     393.8148     378.5544   1426.91223     393.8148     378.5544
   1426.89697     396.2099     380.5149   1426.89697     396.2099     380.5149
   1426.88171     398.3170     382.4611   1426.88171     398.3170     382.4611
   1426.86646     400.3239     383.9682   1426.86646     400.3239     383.9682
   1426.85120     403.6639     386.1442   1426.85120     403.6639     386.1442
   1426.83594     406.4102     388.3021   1426.83594     406.4102     388.3021
   1426.82068     408.5330     389.9159   1426.82068     408.5330     389.9159
   1426.80542     410.3994     392.1541   1426.80542     410.3994     392.1541
   1426.79016     413.1549     393.6523   1426.79016     413.1549     393.6523
   1426.77490     415.7348     395.5396   1426.77490     415.7348     395.5396
   1426.75964     418.2129     397.1852   1426.75964     418.2129     397.1852
   1426.74438     420.6703     399.2855   1426.74438     420.6703     399.2855
   1426.72913     422.9659     400.9223   1426.72913     422.9659     400.9223
   1426.71387     425.3304     402.4894   1426.71387     425.3304     402.4894
   1426.69861     427.8419     404.3799   1426.69861     427.8419     404.3799
   1426.68335     430.5919     406.2093   1426.68335     430.5919     406.2093
   1426.66809     432.0894     407.5645   1426.66809     432.0894     407.5645
   1426.65283     435.2893     409.8227   1426.65283     435.2893     409.8227
   1426.63757     438.1495     411.7459   1426.63757     438.1495     411.7459
   1426.62231     441.2243     414.6335   1426.62231     441.2243     414.6335
   1426.60706     442.9486     414.7748   1426.60706     442.9486     414.7748
   1426.59180     445.2980     415.9249   1426.59180     445.2980     415.9249
   1426.57654     447.7852     418.8472   1426.57654     447.7852     418.8472
   1426.56128     450.6129     419.5353   1426.56128     450.6129     419.5353
   1426.54602     453.2127     421.5233   1426.54602     453.2127     421.5233
   1426.53076     455.3174     423.4085   1426.53076     455.3174     423.4085
   1426.51550     457.5384     424.9232   1426.51550     457.5384     424.9232
   1426.50024     459.5661     426.9212   1426.50024     459.5661     426.9212
   1426.48499     463.5081     428.2134   1426.48499     463.5081     428.2134
   1426.46973     465.4689     430.1652   1426.46973     465.4689     430.1652
   1426.45447     467.6740     431.5212   1426.45447     467.6740     431.5212
   1426.43921     470.2480     434.1111   1426.43921     470.2480     434.1111
   1426.42395     472.7992     435.6192   1426.42395     472.7992     435.6192
   1426.40869     475.6331     436.5124   1426.40869     475.6331     436.5124
   1426.39343     477.7738     439.2001   1426.39343     477.7738     439.2001
   1426.37817     479.7253     440.1480   1426.37817     479.7253     440.1480
   1426.36292     482.2598     440.9631   1426.36292     482.2598     440.9631
   1426.34766     485.3185     442.6683   1426.34766     485.3185     442.6683
   1426.33240     487.4348     444.2178   1426.33240     487.4348     444.2178
   1426.31714     490.2783     446.2668   1426.31714     490.2783     446.2668
   1426.30188     492.1603     447.7007   1426.30188     492.1603     447.7007
   1426.28662     494.3647     448.9324   1426.28662     494.3647     448.9324
   1426.27136     496.6513     450.8391   1426.27136     496.6513     450.8391
   1426.25610     499.6845     452.2963   1426.25610     499.6845     452.2963
   1426.24084     500.9627     454.2360   1426.24084     500.9627     454.2360
   1426.22559     503.3185     455.6517   1426.22559     503.3185     455.6517
   1426.21033     506.0157     456.7897   1426.21033     506.0157     456.7897
   1426.19507     508.8959     458.4462   1426.19507     508.8959     458.4462
   1426.17981     510.5070     459.7958   1426.17981     510.5070     459.7958
   1426.16455     512.9065     460.2682   1426.16455     512.9065     460.2682
   1426.14929     514.8114     462.1866   1426.14929     514.8114     462.1866
   1426.13403     517.6160     464.8190   1426.13403     517.6160     464.8190
   1426.11877     519.6454     464.1655   1426.11877     519.6454     464.1655
   1426.10352     521.3497     466.9406   1426.10352     521.3497     466.9406
   1426.08826     523.7802     467.9984   1426.08826     523.7802     467.9984
   1426.07300     525.8054     469.1140   1426.07300     525.8054     469.1140
   1426.05774     527.8292     470.2937   1426.05774     527.8292     470.2937
   1426.04248     529.9576     472.3978   1426.04248     529.9576     472.3978
   1426.02722     532.5407     473.3059   1426.02722     532.5407     473.3059
   1426.01196     534.6345     474.4424   1426.01196     534.6345     474.4424
   1425.99670     536.3199     475.3830   1425.99670     536.3199     475.3830
   1425.98145     539.5150     476.8762   1425.98145     539.5150     476.8762
   1425.96619     541.4598     477.8911   1425.96619     541.4598     477.8911
   1425.95093     542.1695     479.8270   1425.95093     542.1695     479.8270
   1425.93567     544.1647     480.8234   1425.93567     544.1647     480.8234
   1425.92041     546.1801     481.7914   1425.92041     546.1801     481.7914
   1425.90515     547.5966     483.1534   1425.90515     547.5966     483.1534
   1425.88989     549.6426     484.4102   1425.88989     549.6426     484.4102
   1425.87463     552.2255     485.7201   1425.87463     552.2255     485.7201
   1425.85938     553.6280     485.7572   1425.85938     553.6280     485.7572
   1425.84412     555.9191     487.7606   1425.84412     555.9191     487.7606
   1425.82886     557.7837     488.7936   1425.82886     557.7837     488.7936
   1425.81360     558.9909     489.5776   1425.81360     558.9909     489.5776
   1425.79834     561.0937     490.8734   1425.79834     561.0937     490.8734
   1425.78308     561.6967     490.9969   1425.78308     561.6967     490.9969
   1425.76782     565.3522     492.2858   1425.76782     565.3522     492.2858
   1425.75256     565.7300     494.5869   1425.75256     565.7300     494.5869
   1425.73730     568.0342     494.6702   1425.73730     568.0342     494.6702
   1425.72205     568.8281     496.1320   1425.72205     568.8281     496.1320
   1425.70679     570.3387     496.8565   1425.70679     570.3387     496.8565
   1425.69153     572.3922     498.4689   1425.69153     572.3922     498.4689
   1425.67627     574.2857     499.2201   1425.67627     574.2857     499.2201
   1425.66101     575.4896     499.8864   1425.66101     575.4896     499.8864
   1425.64575     577.4926     501.4412   1425.64575     577.4926     501.4412
   1425.63049     577.8168     501.4948   1425.63049     577.8168     501.4948
   1425.61523     579.8619     502.5627   1425.61523     579.8619     502.5627
   1425.59998     582.3380     502.5500   1425.59998     582.3380     502.5500
   1425.58472     582.5659     504.3763   1425.58472     582.5659     504.3763
   1425.56946     583.5667     504.7985   1425.56946     583.5667     504.7985
   1425.55420     585.5125     505.7875   1425.55420     585.5125     505.7875
   1425.53894     586.2784     506.4575   1425.53894     586.2784     506.4575
   1425.52368     587.3614     507.2812   1425.52368     587.3614     507.2812
   1425.50842     588.5502     507.6940   1425.50842     588.5502     507.6940
   1425.49316     590.4320     508.6429   1425.49316     590.4320     508.6429
   1425.47791     591.7782     509.0366   1425.47791     591.7782     509.0366
   1425.46265     592.6829     510.0490   1425.46265     592.6829     510.0490
   1425.44739     594.0604     510.8862   1425.44739     594.0604     510.8862
   1425.43213     595.8723     511.1704   1425.43213     595.8723     511.1704
   1425.41687     595.9873     512.1275   1425.41687     595.9873     512.1275
   1425.40161     597.2578     512.9715   1425.40161     597.2578     512.9715
   1425.38635     598.1910     512.8600   1425.38635     598.1910     512.8600
   1425.37109     598.8645     514.1392   1425.37109     598.8645     514.1392
   1425.35583     600.0352     514.0939   1425.35583     600.0352     514.0939
   1425.34058     601.2563     514.8082   1425.34058     601.2563     514.8082
   1425.32532     601.7872     515.9343   1425.32532     601.7872     515.9343
   1425.31006     602.6429     515.5970   1425.31006     602.6429     515.5970
   1425.29480     604.4426     516.3995   1425.29480     604.4426     516.3995
   1425.27954     605.2182     516.6080   1425.27954     605.2182     516.6080
   1425.26428     605.4202     517.7166   1425.26428     605.4202     517.7166
   1425.24902     607.0291     519.0740   1425.24902     607.0291     519.0740
   1425.23376     606.5434     518.8380   1425.23376     606.5434     518.8380
   1425.21851     607.8495     518.7158   1425.21851     607.8495     518.7158
   1425.20325     608.1921     519.9127   1425.20325     608.1921     519.9127
   1425.18799     609.9659     519.6563   1425.18799     609.9659     519.6563
   1425.17273     610.5039     520.7622   1425.17273     610.5039     520.7622
   1425.15747     611.5983     520.5821   1425.15747     611.5983     520.5821
   1425.14221     612.0287     521.1833   1425.14221     612.0287     521.1833
   1425.12695     612.2669     521.3992   1425.12695     612.2669     521.3992
   1425.11169     611.9112     521.9981   1425.11169     611.9112     521.9981
   1425.09644     612.6617     521.8509   1425.09644     612.6617     521.8509
   1425.08118     613.7712     522.9597   1425.08118     613.7712     522.9597
   1425.06592     614.8763     522.7202   1425.06592     614.8763     522.7202
   1425.05066     615.0576     522.6077   1425.05066     615.0576     522.6077
   1425.03540     616.0272     523.8679   1425.03540     616.0272     523.8679
   1425.02014     616.5701     523.7510   1425.02014     616.5701     523.7510
   1425.00488     616.6170     524.1685   1425.00488     616.6170     524.1685
   1424.98962     616.7977     523.7100   1424.98962     616.7977     523.7100
   1424.97437     617.6564     524.4824   1424.97437     617.6564     524.4824
   1424.95911     618.3026     524.6760   1424.95911     618.3026     524.6760
   1424.94385     618.8875     524.9417   1424.94385     618.8875     524.9417
   1424.92859     618.3076     525.1521   1424.92859     618.3076     525.1521
   1424.91333     619.2404     526.0847   1424.91333     619.2404     526.0847
   1424.89807     619.2054     524.4001   1424.89807     619.2054     524.4001
   1424.88281     619.5666     525.4964   1424.88281     619.5666     525.4964
   1424.86755     620.0670     525.5314   1424.86755     620.0670     525.5314
   1424.85229     620.3158     526.2153   1424.85229     620.3158     526.2153
   1424.83704     620.4808     525.5384   1424.83704     620.4808     525.5384
   1424.82178     620.2405     526.0155   1424.82178     620.2405     526.0155
   1424.80652     620.0740     526.0579   1424.80652     620.0740     526.0579
   1424.79126     620.6388     525.2960   1424.79126     620.6388     525.2960
   1424.77600     621.1446     525.6022   1424.77600     621.1446     525.6022
   1424.76074     621.5749     526.4199   1424.76074     621.5749     526.4199
   1424.74548     621.1486     527.1719   1424.74548     621.1486     527.1719
   1424.73022     621.2512     526.6971   1424.73022     621.2512     526.6971
   1424.71497     621.2876     526.1150   1424.71497     621.2876     526.1150
   1424.69971     622.6705     525.5893   1424.69971     622.6705     525.5893
   1424.68445     621.7029     525.6487   1424.68445     621.7029     525.6487
   1424.66919     621.5570     524.9385   1424.66919     621.5570     524.9385
   1424.65393     621.7213     525.8604   1424.65393     621.7213     525.8604
   1424.63867     621.9313     525.4831   1424.63867     621.9313     525.4831
   1424.62341     621.6263     525.0677   1424.62341     621.6263     525.0677
   1424.60815     620.9799     525.5703   1424.60815     620.9799     525.5703
   1424.59290     621.9127     525.4487   1424.59290     621.9127     525.4487
   1424.57764     621.6893     526.1196   1424.57764     621.6893     526.1196
   1424.56238     622.1352     525.2924   1424.56238     622.1352     525.2924
   1424.54712     621.8893     523.4437   1424.54712     621.8893     523.4437
   1424.53186     621.8447     524.2598   1424.53186     621.8447     524.2598
   1424.51660     620.7636     525.4666   1424.51660     620.7636     525.4666
   1424.50134     621.3552     523.5053   1424.50134     621.3552     523.5053
   1424.48608     621.1306     524.6178   1424.48608     621.1306     524.6178
   1424.47083     621.1616     524.9445   1424.47083     621.1616     524.9445
   1424.45557     620.9571     523.6155   1424.45557     620.9571     523.6155
   1424.44031     620.7702     522.8773   1424.44031     620.7702     522.8773
   1424.42505     620.7355     523.4113   1424.42505     620.7355     523.4113
   1424.40979     621.6281     523.2245   1424.40979     621.6281     523.2245
   1424.39453     620.2334     522.5649   1424.39453     620.2334     522.5649
   1424.37927     619.3577     521.9617   1424.37927     619.3577     521.9617
   1424.36401     619.2057     523.0205   1424.36401     619.2057     523.0205
   1424.34875     618.1334     522.3303   1424.34875     618.1334     522.3303
   1424.33350     618.9516     522.0342   1424.33350     618.9516     522.0342
   1424.31824     618.9564     521.1774   1424.31824     618.9564     521.1774
   1424.30298     618.4413     521.0678   1424.30298     618.4413     521.0678
   1424.28772     619.5175     520.5959   1424.28772     619.5175     520.5959
   1424.27246     618.4653     520.8069   1424.27246     618.4653     520.8069
   1424.25720     618.7042     519.8247   1424.25720     618.7042     519.8247
   1424.24194     616.5845     520.2932   1424.24194     616.5845     520.2932
   1424.22668     618.2338     519.1649   1424.22668     618.2338     519.1649
   1424.21143     616.4498     519.1064   1424.21143     616.4498     519.1064
   1424.19617     617.6400     518.2573   1424.19617     617.6400     518.2573
   1424.18091     616.2831     517.8293   1424.18091     616.2831     517.8293
   1424.16565     616.3731     517.9695   1424.16565     616.3731     517.9695
