#     FILENAME=!Skynet_57528_lach-cc-185_20577_21008.cyb.fits
#     BASENAME=Skynet_57528_lach-cc-185_20577_21008
#     SRC_NAME=lach-cc-185
#     OBSERVER=ccmadison16_9505
#     DATE_OBS=2016-05-20T18:50:15.620
#        OBSID=20577
#      SCANNUM=21008
#          MJD=57528.7859
#          UTC=67904
#     SCANTYPE=track
#     DATAMODE=HIRES
#     TUNEFREQ=1420.0000
# Actual_FREQ1=1420.0000
# Actual_FREQ2=1420.0000
#    LO1Tuning=6870.000
#     RFFILTER=1355_1435
#        OBSBW=-15.6250
#        NCHAN=1024 
#        FOCUS=37.0489
#           RA=05:57:02.36
#          DEC=24:38:17.85
#      RA(hrs)=5.950700
#     DEC(deg)=24.638300
#    AZIM(deg)=151.273
#    ELEV(deg)=74.544
#     IFattens=10.00, 9.00
#      WARNING=None
#    TCAL_XL1=7.9635
#    TCAL_YR1=9.1340
#    TCAL_XL2=7.9635
#    TCAL_YR2=9.1340
#     TRX_XL1=11.7060
#     TRX_YR1=11.7060
#     TRX_XL2=11.7060
#     TRX_YR2=11.7060
#        TAVE=1.0000
#Freq1(MHz)          XL1          YR1  Freq2(MHz)          XL2          YR2 

   1427.81250     376.6632     342.0522   1427.81250     376.6632     342.0522
   1427.79724     377.3553     343.7413   1427.79724     377.3553     343.7413
   1427.78198     377.7500     344.6655   1427.78198     377.7500     344.6655
   1427.76672     378.6855     345.9830   1427.76672     378.6855     345.9830
   1427.75146     379.3056     347.7069   1427.75146     379.3056     347.7069
   1427.73621     380.5550     349.5009   1427.73621     380.5550     349.5009
   1427.72095     381.6221     350.1476   1427.72095     381.6221     350.1476
   1427.70569     382.2018     351.7374   1427.70569     382.2018     351.7374
   1427.69043     382.8429     353.2085   1427.69043     382.8429     353.2085
   1427.67517     384.4006     355.6841   1427.67517     384.4006     355.6841
   1427.65991     385.4152     356.8398   1427.65991     385.4152     356.8398
   1427.64465     386.5128     358.6181   1427.64465     386.5128     358.6181
   1427.62939     387.8444     360.0166   1427.62939     387.8444     360.0166
   1427.61414     388.3024     361.6667   1427.61414     388.3024     361.6667
   1427.59888     389.8547     363.1718   1427.59888     389.8547     363.1718
   1427.58362     391.6347     365.3010   1427.58362     391.6347     365.3010
   1427.56836     392.9450     367.2738   1427.56836     392.9450     367.2738
   1427.55310     394.2640     368.7032   1427.55310     394.2640     368.7032
   1427.53784     395.9776     370.6090   1427.53784     395.9776     370.6090
   1427.52258     396.9408     372.2220   1427.52258     396.9408     372.2220
   1427.50732     399.3928     374.1514   1427.50732     399.3928     374.1514
   1427.49207     400.2282     376.4819   1427.49207     400.2282     376.4819
   1427.47681     401.7140     377.5775   1427.47681     401.7140     377.5775
   1427.46155     404.8616     379.9472   1427.46155     404.8616     379.9472
   1427.44629     405.5088     381.6139   1427.44629     405.5088     381.6139
   1427.43103     407.1584     383.9713   1427.43103     407.1584     383.9713
   1427.41577     409.7717     386.1360   1427.41577     409.7717     386.1360
   1427.40051     411.1673     388.2942   1427.40051     411.1673     388.2942
   1427.38525     412.3955     389.9436   1427.38525     412.3955     389.9436
   1427.37000     414.7232     392.1352   1427.37000     414.7232     392.1352
   1427.35474     417.2115     393.7081   1427.35474     417.2115     393.7081
   1427.33948     418.7928     395.5275   1427.33948     418.7928     395.5275
   1427.32422     421.3100     398.3689   1427.32422     421.3100     398.3689
   1427.30896     423.9608     400.2860   1427.30896     423.9608     400.2860
   1427.29370     425.8942     402.2376   1427.29370     425.8942     402.2376
   1427.27844     427.7780     404.5464   1427.27844     427.7780     404.5464
   1427.26318     430.6919     406.6341   1427.26318     430.6919     406.6341
   1427.24792     432.7604     408.6527   1427.24792     432.7604     408.6527
   1427.23267     435.0043     411.2582   1427.23267     435.0043     411.2582
   1427.21741     437.3285     413.2055   1427.21741     437.3285     413.2055
   1427.20215     440.4098     415.7878   1427.20215     440.4098     415.7878
   1427.18689     441.3853     418.2367   1427.18689     441.3853     418.2367
   1427.17163     445.1853     419.7751   1427.17163     445.1853     419.7751
   1427.15637     447.4011     422.8776   1427.15637     447.4011     422.8776
   1427.14111     449.7375     424.1151   1427.14111     449.7375     424.1151
   1427.12585     451.9308     426.4761   1427.12585     451.9308     426.4761
   1427.11060     454.6363     429.0130   1427.11060     454.6363     429.0130
   1427.09534     457.8932     431.3032   1427.09534     457.8932     431.3032
   1427.08008     460.5272     433.1662   1427.08008     460.5272     433.1662
   1427.06482     462.6934     435.5577   1427.06482     462.6934     435.5577
   1427.04956     465.5102     437.7383   1427.04956     465.5102     437.7383
   1427.03430     468.7213     439.9344   1427.03430     468.7213     439.9344
   1427.01904     471.1408     441.4283   1427.01904     471.1408     441.4283
   1427.00378     473.5713     444.4537   1427.00378     473.5713     444.4537
   1426.98853     476.8610     446.6226   1426.98853     476.8610     446.6226
   1426.97327     479.0518     449.6862   1426.97327     479.0518     449.6862
   1426.95801     482.2944     451.2773   1426.95801     482.2944     451.2773
   1426.94275     485.2133     452.9188   1426.94275     485.2133     452.9188
   1426.92749     488.5506     454.3259   1426.92749     488.5506     454.3259
   1426.91223     490.9247     457.9542   1426.91223     490.9247     457.9542
   1426.89697     494.7188     460.3417   1426.89697     494.7188     460.3417
   1426.88171     496.1784     462.0818   1426.88171     496.1784     462.0818
   1426.86646     499.7893     464.6382   1426.86646     499.7893     464.6382
   1426.85120     503.3300     466.5020   1426.85120     503.3300     466.5020
   1426.83594     506.5061     469.0693   1426.83594     506.5061     469.0693
   1426.82068     508.9011     470.8742   1426.82068     508.9011     470.8742
   1426.80542     511.5103     473.4550   1426.80542     511.5103     473.4550
   1426.79016     515.9766     476.2103   1426.79016     515.9766     476.2103
   1426.77490     518.0984     477.2191   1426.77490     518.0984     477.2191
   1426.75964     521.6849     480.6182   1426.75964     521.6849     480.6182
   1426.74438     523.7880     482.9604   1426.74438     523.7880     482.9604
   1426.72913     528.2981     484.2675   1426.72913     528.2981     484.2675
   1426.71387     530.6918     486.2907   1426.71387     530.6918     486.2907
   1426.69861     533.8195     488.8561   1426.69861     533.8195     488.8561
   1426.68335     536.4788     491.1158   1426.68335     536.4788     491.1158
   1426.66809     540.2950     492.8505   1426.66809     540.2950     492.8505
   1426.65283     543.3631     495.2606   1426.65283     543.3631     495.2606
   1426.63757     545.7972     497.5285   1426.63757     545.7972     497.5285
   1426.62231     550.7169     507.5705   1426.62231     550.7169     507.5705
   1426.60706     553.0212     501.2786   1426.60706     553.0212     501.2786
   1426.59180     555.1616     503.8229   1426.59180     555.1616     503.8229
   1426.57654     558.6338     506.1646   1426.57654     558.6338     506.1646
   1426.56128     561.9109     506.5819   1426.56128     561.9109     506.5819
   1426.54602     564.0115     509.2592   1426.54602     564.0115     509.2592
   1426.53076     568.5871     511.1861   1426.53076     568.5871     511.1861
   1426.51550     570.9310     513.5663   1426.51550     570.9310     513.5663
   1426.50024     573.2367     515.2515   1426.50024     573.2367     515.2515
   1426.48499     577.4892     518.3458   1426.48499     577.4892     518.3458
   1426.46973     580.6530     519.2640   1426.46973     580.6530     519.2640
   1426.45447     584.4493     520.9979   1426.45447     584.4493     520.9979
   1426.43921     586.4574     523.7527   1426.43921     586.4574     523.7527
   1426.42395     590.4493     525.3261   1426.42395     590.4493     525.3261
   1426.40869     592.4075     526.5995   1426.40869     592.4075     526.5995
   1426.39343     595.5859     528.7527   1426.39343     595.5859     528.7527
   1426.37817     598.6245     530.5188   1426.37817     598.6245     530.5188
   1426.36292     601.0480     533.3473   1426.36292     601.0480     533.3473
   1426.34766     604.2262     533.8765   1426.34766     604.2262     533.8765
   1426.33240     607.6876     535.3738   1426.33240     607.6876     535.3738
   1426.31714     610.9937     537.0280   1426.31714     610.9937     537.0280
   1426.30188     613.4755     539.1083   1426.30188     613.4755     539.1083
   1426.28662     617.0013     540.7606   1426.28662     617.0013     540.7606
   1426.27136     619.5294     543.8901   1426.27136     619.5294     543.8901
   1426.25610     622.9523     544.4726   1426.25610     622.9523     544.4726
   1426.24084     626.0261     547.1182   1426.24084     626.0261     547.1182
   1426.22559     629.4041     548.7110   1426.22559     629.4041     548.7110
   1426.21033     631.3897     550.1627   1426.21033     631.3897     550.1627
   1426.19507     634.4760     551.5414   1426.19507     634.4760     551.5414
   1426.17981     637.2833     552.8979   1426.17981     637.2833     552.8979
   1426.16455     639.6448     555.4696   1426.16455     639.6448     555.4696
   1426.14929     641.5962     556.5016   1426.14929     641.5962     556.5016
   1426.13403     644.0483     558.5983   1426.13403     644.0483     558.5983
   1426.11877     647.5885     559.9666   1426.11877     647.5885     559.9666
   1426.10352     649.8238     561.8087   1426.10352     649.8238     561.8087
   1426.08826     653.1395     563.0807   1426.08826     653.1395     563.0807
   1426.07300     654.3839     564.4501   1426.07300     654.3839     564.4501
   1426.05774     658.2893     565.9907   1426.05774     658.2893     565.9907
   1426.04248     660.1837     566.9694   1426.04248     660.1837     566.9694
   1426.02722     663.2133     568.4210   1426.02722     663.2133     568.4210
   1426.01196     665.9916     570.6314   1426.01196     665.9916     570.6314
   1425.99670     669.1318     571.6141   1425.99670     669.1318     571.6141
   1425.98145     671.9000     573.7695   1425.98145     671.9000     573.7695
   1425.96619     672.4319     574.4170   1425.96619     672.4319     574.4170
   1425.95093     676.4858     575.6636   1425.95093     676.4858     575.6636
   1425.93567     679.7310     576.5201   1425.93567     679.7310     576.5201
   1425.92041     680.9639     578.1301   1425.92041     680.9639     578.1301
   1425.90515     682.7026     580.5223   1425.90515     682.7026     580.5223
   1425.88989     685.6625     581.9338   1425.88989     685.6625     581.9338
   1425.87463     686.7305     583.7919   1425.87463     686.7305     583.7919
   1425.85938     689.5639     583.4310   1425.85938     689.5639     583.4310
   1425.84412     692.2636     585.6353   1425.84412     692.2636     585.6353
   1425.82886     695.3290     587.1847   1425.82886     695.3290     587.1847
   1425.81360     695.5894     588.5519   1425.81360     695.5894     588.5519
   1425.79834     698.0918     588.9869   1425.79834     698.0918     588.9869
   1425.78308     699.8948     590.4357   1425.78308     699.8948     590.4357
   1425.76782     703.2344     591.1625   1425.76782     703.2344     591.1625
   1425.75256     705.0132     591.8659   1425.75256     705.0132     591.8659
   1425.73730     707.5851     592.7291   1425.73730     707.5851     592.7291
   1425.72205     708.2608     593.3067   1425.72205     708.2608     593.3067
   1425.70679     711.1112     594.4412   1425.70679     711.1112     594.4412
   1425.69153     713.2103     596.3203   1425.69153     713.2103     596.3203
   1425.67627     715.1125     597.5589   1425.67627     715.1125     597.5589
   1425.66101     716.7115     598.6536   1425.66101     716.7115     598.6536
   1425.64575     718.6437     599.3896   1425.64575     718.6437     599.3896
   1425.63049     719.7308     599.3204   1425.63049     719.7308     599.3204
   1425.61523     721.1149     601.3919   1425.61523     721.1149     601.3919
   1425.59998     723.0443     601.9597   1425.59998     723.0443     601.9597
   1425.58472     725.1074     603.4470   1425.58472     725.1074     603.4470
   1425.56946     726.9423     604.2231   1425.56946     726.9423     604.2231
   1425.55420     728.2817     605.2766   1425.55420     728.2817     605.2766
   1425.53894     729.9790     606.2828   1425.53894     729.9790     606.2828
   1425.52368     730.8586     606.2008   1425.52368     730.8586     606.2008
   1425.50842     732.4383     606.4302   1425.50842     732.4383     606.4302
   1425.49316     733.7696     607.1912   1425.49316     733.7696     607.1912
   1425.47791     735.1879     608.8180   1425.47791     735.1879     608.8180
   1425.46265     738.3408     609.3401   1425.46265     738.3408     609.3401
   1425.44739     738.3406     610.5841   1425.44739     738.3406     610.5841
   1425.43213     738.9769     612.0202   1425.43213     738.9769     612.0202
   1425.41687     741.2885     612.0920   1425.41687     741.2885     612.0920
   1425.40161     742.9149     612.5412   1425.40161     742.9149     612.5412
   1425.38635     744.9048     612.6920   1425.38635     744.9048     612.6920
   1425.37109     745.5667     613.0646   1425.37109     745.5667     613.0646
   1425.35583     746.8751     614.0372   1425.35583     746.8751     614.0372
   1425.34058     747.2457     615.0965   1425.34058     747.2457     615.0965
   1425.32532     748.9278     616.5384   1425.32532     748.9278     616.5384
   1425.31006     750.1188     615.4916   1425.31006     750.1188     615.4916
   1425.29480     749.8785     616.6549   1425.29480     749.8785     616.6549
   1425.27954     752.1940     617.5791   1425.27954     752.1940     617.5791
   1425.26428     752.1548     618.0800   1425.26428     752.1548     618.0800
   1425.24902     754.5374     618.1342   1425.24902     754.5374     618.1342
   1425.23376     753.8186     619.3706   1425.23376     753.8186     619.3706
   1425.21851     755.8860     620.1940   1425.21851     755.8860     620.1940
   1425.20325     756.5779     619.6192   1425.20325     756.5779     619.6192
   1425.18799     758.7646     619.7114   1425.18799     758.7646     619.7114
   1425.17273     759.2776     620.6448   1425.17273     759.2776     620.6448
   1425.15747     759.6663     620.7069   1425.15747     759.6663     620.7069
   1425.14221     760.2936     620.9795   1425.14221     760.2936     620.9795
   1425.12695     760.1635     620.7521   1425.12695     760.1635     620.7521
   1425.11169     762.3391     622.1628   1425.11169     762.3391     622.1628
   1425.09644     760.6739     621.2807   1425.09644     760.6739     621.2807
   1425.08118     763.2151     622.0377   1425.08118     763.2151     622.0377
   1425.06592     763.8898     622.6485   1425.06592     763.8898     622.6485
   1425.05066     763.6164     623.0114   1425.05066     763.6164     623.0114
   1425.03540     763.5294     623.6982   1425.03540     763.5294     623.6982
   1425.02014     765.7792     623.0118   1425.02014     765.7792     623.0118
   1425.00488     765.9202     623.6149   1425.00488     765.9202     623.6149
   1424.98962     766.3043     624.4128   1424.98962     766.3043     624.4128
   1424.97437     766.7097     624.2638   1424.97437     766.7097     624.2638
   1424.95911     766.3171     624.2484   1424.95911     766.3171     624.2484
   1424.94385     767.2979     624.4266   1424.94385     767.2979     624.4266
   1424.92859     767.3086     623.8021   1424.92859     767.3086     623.8021
   1424.91333     766.7167     624.3539   1424.91333     766.7167     624.3539
   1424.89807     768.4560     624.0549   1424.89807     768.4560     624.0549
   1424.88281     768.2839     624.8397   1424.88281     768.2839     624.8397
   1424.86755     768.2490     624.3570   1424.86755     768.2490     624.3570
   1424.85229     768.1964     624.8441   1424.85229     768.1964     624.8441
   1424.83704     768.7266     624.4892   1424.83704     768.7266     624.4892
   1424.82178     768.7995     625.1431   1424.82178     768.7995     625.1431
   1424.80652     768.9858     625.1302   1424.80652     768.9858     625.1302
   1424.79126     769.8043     625.1458   1424.79126     769.8043     625.1458
   1424.77600     768.4955     624.5811   1424.77600     768.4955     624.5811
   1424.76074     768.9603     625.2039   1424.76074     768.9603     625.2039
   1424.74548     769.6434     623.5029   1424.74548     769.6434     623.5029
   1424.73022     769.2377     624.7607   1424.73022     769.2377     624.7607
   1424.71497     769.8223     624.3156   1424.71497     769.8223     624.3156
   1424.69971     771.1632     624.4440   1424.69971     771.1632     624.4440
   1424.68445     769.6431     624.4584   1424.68445     769.6431     624.4584
   1424.66919     771.1174     624.2916   1424.66919     771.1174     624.2916
   1424.65393     769.6485     624.0684   1424.65393     769.6485     624.0684
   1424.63867     769.5101     622.4797   1424.63867     769.5101     622.4797
   1424.62341     770.7512     623.7980   1424.62341     770.7512     623.7980
   1424.60815     770.8672     624.2519   1424.60815     770.8672     624.2519
   1424.59290     769.6018     623.3345   1424.59290     769.6018     623.3345
   1424.57764     769.1836     623.1318   1424.57764     769.1836     623.1318
   1424.56238     769.1038     622.7620   1424.56238     769.1038     622.7620
   1424.54712     768.4013     622.3760   1424.54712     768.4013     622.3760
   1424.53186     769.9894     622.7058   1424.53186     769.9894     622.7058
   1424.51660     769.6159     621.8145   1424.51660     769.6159     621.8145
   1424.50134     768.4124     622.7032   1424.50134     768.4124     622.7032
   1424.48608     769.1554     621.5145   1424.48608     769.1554     621.5145
   1424.47083     768.7128     621.3990   1424.47083     768.7128     621.3990
   1424.45557     768.1607     621.1339   1424.45557     768.1607     621.1339
   1424.44031     767.4727     620.6456   1424.44031     767.4727     620.6456
   1424.42505     767.9484     620.4850   1424.42505     767.9484     620.4850
   1424.40979     767.6227     620.1817   1424.40979     767.6227     620.1817
   1424.39453     766.7567     619.9293   1424.39453     766.7567     619.9293
   1424.37927     767.1077     619.4391   1424.37927     767.1077     619.4391
   1424.36401     765.7229     618.1526   1424.36401     765.7229     618.1526
   1424.34875     766.4885     618.1923   1424.34875     766.4885     618.1923
   1424.33350     765.8610     617.5734   1424.33350     765.8610     617.5734
   1424.31824     765.7477     618.1661   1424.31824     765.7477     618.1661
   1424.30298     766.2256     617.7888   1424.30298     766.2256     617.7888
   1424.28772     764.9637     616.9721   1424.28772     764.9637     616.9721
   1424.27246     764.4559     615.3613   1424.27246     764.4559     615.3613
   1424.25720     764.3034     616.3569   1424.25720     764.3034     616.3569
   1424.24194     762.7263     615.6973   1424.24194     762.7263     615.6973
   1424.22668     763.1100     614.7396   1424.22668     763.1100     614.7396
   1424.21143     763.1859     614.6352   1424.21143     763.1859     614.6352
   1424.19617     762.8670     614.0223   1424.19617     762.8670     614.0223
   1424.18091     762.4693     613.3458   1424.18091     762.4693     613.3458
   1424.16565     761.4766     613.5958   1424.16565     761.4766     613.5958
