#     FILENAME=!Skynet_57528_lach-cc-76_20511_20922.cyb.fits
#     BASENAME=Skynet_57528_lach-cc-76_20511_20922
#     SRC_NAME=lach-cc-76
#     OBSERVER=ccmadison16_9505
#     DATE_OBS=2016-05-20T15:53:42.870
#        OBSID=20511
#      SCANNUM=20922
#          MJD=57528.6633
#          UTC=57311
#     SCANTYPE=track
#     DATAMODE=HIRES
#     TUNEFREQ=1420.0000
# Actual_FREQ1=1420.0000
# Actual_FREQ2=1420.0000
#    LO1Tuning=6870.000
#     RFFILTER=1355_1435
#        OBSBW=-15.6250
#        NCHAN=1024 
#        FOCUS=37.0489
#           RA=20:23:45.29
#          DEC=37:25:35.26
#      RA(hrs)=20.395900
#     DEC(deg)=37.426500
#    AZIM(deg)=301.034
#    ELEV(deg)=21.275
#     IFattens=11.00, 10.00
#      WARNING=None
#    TCAL_XL1=7.9635
#    TCAL_YR1=9.1340
#    TCAL_XL2=7.9635
#    TCAL_YR2=9.1340
#     TRX_XL1=11.7060
#     TRX_YR1=11.7060
#     TRX_XL2=11.7060
#     TRX_YR2=11.7060
#        TAVE=1.0000
#Freq1(MHz)          XL1          YR1  Freq2(MHz)          XL2          YR2 

   1427.81250     340.9150     284.5839   1427.81250     340.9150     284.5839
   1427.79724     341.4212     285.2386   1427.79724     341.4212     285.2386
   1427.78198     341.9924     285.9936   1427.78198     341.9924     285.9936
   1427.76672     342.5682     286.7686   1427.76672     342.5682     286.7686
   1427.75146     343.0443     287.5060   1427.75146     343.0443     287.5060
   1427.73621     343.9063     288.2273   1427.73621     343.9063     288.2273
   1427.72095     344.6811     288.3973   1427.72095     344.6811     288.3973
   1427.70569     345.8375     289.5835   1427.70569     345.8375     289.5835
   1427.69043     346.3315     290.7594   1427.69043     346.3315     290.7594
   1427.67517     347.2505     291.8573   1427.67517     347.2505     291.8573
   1427.65991     348.1747     292.5012   1427.65991     348.1747     292.5012
   1427.64465     349.5733     293.2589   1427.64465     349.5733     293.2589
   1427.62939     350.7424     294.7210   1427.62939     350.7424     294.7210
   1427.61414     352.6689     295.9944   1427.61414     352.6689     295.9944
   1427.59888     353.0118     296.9616   1427.59888     353.0118     296.9616
   1427.58362     354.3343     298.3604   1427.58362     354.3343     298.3604
   1427.56836     356.0139     299.1149   1427.56836     356.0139     299.1149
   1427.55310     357.3414     301.0371   1427.55310     357.3414     301.0371
   1427.53784     357.9991     302.1531   1427.53784     357.9991     302.1531
   1427.52258     360.0415     303.4601   1427.52258     360.0415     303.4601
   1427.50732     361.2861     304.3894   1427.50732     361.2861     304.3894
   1427.49207     362.4579     306.5232   1427.49207     362.4579     306.5232
   1427.47681     364.3668     307.8763   1427.47681     364.3668     307.8763
   1427.46155     365.5903     309.2932   1427.46155     365.5903     309.2932
   1427.44629     367.6618     310.5523   1427.44629     367.6618     310.5523
   1427.43103     369.6724     312.2587   1427.43103     369.6724     312.2587
   1427.41577     371.2530     314.0554   1427.41577     371.2530     314.0554
   1427.40051     372.2241     315.6076   1427.40051     372.2241     315.6076
   1427.38525     373.9693     317.2705   1427.38525     373.9693     317.2705
   1427.37000     376.4026     318.9160   1427.37000     376.4026     318.9160
   1427.35474     378.5840     320.6535   1427.35474     378.5840     320.6535
   1427.33948     380.2395     322.0402   1427.33948     380.2395     322.0402
   1427.32422     382.4145     324.4862   1427.32422     382.4145     324.4862
   1427.30896     383.9921     326.2534   1427.30896     383.9921     326.2534
   1427.29370     386.6177     328.0936   1427.29370     386.6177     328.0936
   1427.27844     388.4153     329.9213   1427.27844     388.4153     329.9213
   1427.26318     390.4822     331.8517   1427.26318     390.4822     331.8517
   1427.24792     392.6240     333.8792   1427.24792     392.6240     333.8792
   1427.23267     394.7261     335.8659   1427.23267     394.7261     335.8659
   1427.21741     396.4781     337.4091   1427.21741     396.4781     337.4091
   1427.20215     399.0435     339.9169   1427.20215     399.0435     339.9169
   1427.18689     400.8362     341.8011   1427.18689     400.8362     341.8011
   1427.17163     403.1959     344.0910   1427.17163     403.1959     344.0910
   1427.15637     405.7395     345.8634   1427.15637     405.7395     345.8634
   1427.14111     408.4432     347.7430   1427.14111     408.4432     347.7430
   1427.12585     410.5785     350.3955   1427.12585     410.5785     350.3955
   1427.11060     412.9695     351.9680   1427.11060     412.9695     351.9680
   1427.09534     415.9694     354.1703   1427.09534     415.9694     354.1703
   1427.08008     417.2385     356.6363   1427.08008     417.2385     356.6363
   1427.06482     420.2205     359.0476   1427.06482     420.2205     359.0476
   1427.04956     422.5695     361.6524   1427.04956     422.5695     361.6524
   1427.03430     425.3964     363.3755   1427.03430     425.3964     363.3755
   1427.01904     427.7918     366.2013   1427.01904     427.7918     366.2013
   1427.00378     430.5775     367.6285   1427.00378     430.5775     367.6285
   1426.98853     432.7869     370.2817   1426.98853     432.7869     370.2817
   1426.97327     435.4904     372.7322   1426.97327     435.4904     372.7322
   1426.95801     438.6358     375.5671   1426.95801     438.6358     375.5671
   1426.94275     439.9753     376.6020   1426.94275     439.9753     376.6020
   1426.92749     443.4816     379.4237   1426.92749     443.4816     379.4237
   1426.91223     445.6324     381.5987   1426.91223     445.6324     381.5987
   1426.89697     448.5103     384.1662   1426.89697     448.5103     384.1662
   1426.88171     451.7085     386.0309   1426.88171     451.7085     386.0309
   1426.86646     454.0652     388.9559   1426.86646     454.0652     388.9559
   1426.85120     456.2417     391.5056   1426.85120     456.2417     391.5056
   1426.83594     459.5662     394.2639   1426.83594     459.5662     394.2639
   1426.82068     462.1412     395.9545   1426.82068     462.1412     395.9545
   1426.80542     465.4655     398.3937   1426.80542     465.4655     398.3937
   1426.79016     468.0230     400.6920   1426.79016     468.0230     400.6920
   1426.77490     470.2564     403.7243   1426.77490     470.2564     403.7243
   1426.75964     474.1448     405.7336   1426.75964     474.1448     405.7336
   1426.74438     476.6467     407.5508   1426.74438     476.6467     407.5508
   1426.72913     478.5634     410.0392   1426.72913     478.5634     410.0392
   1426.71387     481.7321     412.3769   1426.71387     481.7321     412.3769
   1426.69861     483.9696     414.2763   1426.69861     483.9696     414.2763
   1426.68335     486.9754     416.6459   1426.68335     486.9754     416.6459
   1426.66809     490.3468     419.4377   1426.66809     490.3468     419.4377
   1426.65283     492.1192     422.4705   1426.65283     492.1192     422.4705
   1426.63757     496.2718     423.9756   1426.63757     496.2718     423.9756
   1426.62231     500.2030     427.2510   1426.62231     500.2030     427.2510
   1426.60706     502.0337     429.0562   1426.60706     502.0337     429.0562
   1426.59180     503.6273     431.1312   1426.59180     503.6273     431.1312
   1426.57654     506.5783     433.2635   1426.57654     506.5783     433.2635
   1426.56128     509.7255     436.5763   1426.56128     509.7255     436.5763
   1426.54602     512.0427     437.6218   1426.54602     512.0427     437.6218
   1426.53076     515.5724     440.1873   1426.53076     515.5724     440.1873
   1426.51550     518.0428     442.3256   1426.51550     518.0428     442.3256
   1426.50024     520.4382     444.5327   1426.50024     520.4382     444.5327
   1426.48499     523.4913     446.3601   1426.48499     523.4913     446.3601
   1426.46973     526.2847     449.7348   1426.46973     526.2847     449.7348
   1426.45447     528.6156     451.5462   1426.45447     528.6156     451.5462
   1426.43921     531.5076     453.4731   1426.43921     531.5076     453.4731
   1426.42395     534.3896     455.3797   1426.42395     534.3896     455.3797
   1426.40869     536.6677     457.4573   1426.40869     536.6677     457.4573
   1426.39343     539.3422     460.2794   1426.39343     539.3422     460.2794
   1426.37817     541.6492     461.3026   1426.37817     541.6492     461.3026
   1426.36292     544.3246     464.3513   1426.36292     544.3246     464.3513
   1426.34766     548.0686     466.3790   1426.34766     548.0686     466.3790
   1426.33240     549.7515     468.4324   1426.33240     549.7515     468.4324
   1426.31714     553.0308     470.6518   1426.31714     553.0308     470.6518
   1426.30188     554.9670     473.0443   1426.30188     554.9670     473.0443
   1426.28662     557.9254     475.1490   1426.28662     557.9254     475.1490
   1426.27136     561.3093     476.9714   1426.27136     561.3093     476.9714
   1426.25610     563.5568     478.5645   1426.25610     563.5568     478.5645
   1426.24084     565.5181     480.5809   1426.24084     565.5181     480.5809
   1426.22559     568.6451     483.0624   1426.22559     568.6451     483.0624
   1426.21033     571.4969     484.3770   1426.21033     571.4969     484.3770
   1426.19507     572.8135     486.4659   1426.19507     572.8135     486.4659
   1426.17981     575.9215     488.0420   1426.17981     575.9215     488.0420
   1426.16455     578.6943     490.2894   1426.16455     578.6943     490.2894
   1426.14929     579.4379     492.0464   1426.14929     579.4379     492.0464
   1426.13403     582.5038     494.4807   1426.13403     582.5038     494.4807
   1426.11877     584.8700     496.0942   1426.11877     584.8700     496.0942
   1426.10352     587.2411     497.9524   1426.10352     587.2411     497.9524
   1426.08826     588.6959     499.9931   1426.08826     588.6959     499.9931
   1426.07300     592.0944     500.9858   1426.07300     592.0944     500.9858
   1426.05774     594.7864     503.5280   1426.05774     594.7864     503.5280
   1426.04248     596.2850     504.8831   1426.04248     596.2850     504.8831
   1426.02722     599.7200     506.1329   1426.02722     599.7200     506.1329
   1426.01196     601.1213     507.5918   1426.01196     601.1213     507.5918
   1425.99670     603.8159     509.5311   1425.99670     603.8159     509.5311
   1425.98145     604.8499     510.6402   1425.98145     604.8499     510.6402
   1425.96619     607.2343     513.1085   1425.96619     607.2343     513.1085
   1425.95093     610.2582     514.0445   1425.95093     610.2582     514.0445
   1425.93567     610.8998     515.5544   1425.93567     610.8998     515.5544
   1425.92041     613.0389     517.1013   1425.92041     613.0389     517.1013
   1425.90515     615.0219     519.1439   1425.90515     615.0219     519.1439
   1425.88989     618.6683     520.3474   1425.88989     618.6683     520.3474
   1425.87463     620.0045     521.7236   1425.87463     620.0045     521.7236
   1425.85938     620.9055     523.2558   1425.85938     620.9055     523.2558
   1425.84412     623.0735     525.3027   1425.84412     623.0735     525.3027
   1425.82886     624.9499     526.9451   1425.82886     624.9499     526.9451
   1425.81360     627.4108     526.8405   1425.81360     627.4108     526.8405
   1425.79834     628.6127     529.4594   1425.79834     628.6127     529.4594
   1425.78308     631.4236     530.6201   1425.78308     631.4236     530.6201
   1425.76782     631.5766     532.4681   1425.76782     631.5766     532.4681
   1425.75256     634.9821     533.4185   1425.75256     634.9821     533.4185
   1425.73730     637.6122     534.6148   1425.73730     637.6122     534.6148
   1425.72205     637.6115     536.1521   1425.72205     637.6115     536.1521
   1425.70679     638.9125     537.7687   1425.70679     638.9125     537.7687
   1425.69153     640.8841     538.9131   1425.69153     640.8841     538.9131
   1425.67627     642.4192     539.2468   1425.67627     642.4192     539.2468
   1425.66101     643.3541     541.2747   1425.66101     643.3541     541.2747
   1425.64575     645.5632     542.2096   1425.64575     645.5632     542.2096
   1425.63049     646.3373     543.5240   1425.63049     646.3373     543.5240
   1425.61523     649.1300     544.7841   1425.61523     649.1300     544.7841
   1425.59998     649.3848     545.3384   1425.59998     649.3848     545.3384
   1425.58472     651.6816     546.2816   1425.58472     651.6816     546.2816
   1425.56946     652.9350     548.6706   1425.56946     652.9350     548.6706
   1425.55420     654.6227     547.9778   1425.55420     654.6227     547.9778
   1425.53894     655.1561     550.4595   1425.53894     655.1561     550.4595
   1425.52368     657.4641     551.2559   1425.52368     657.4641     551.2559
   1425.50842     657.6071     553.7393   1425.50842     657.6071     553.7393
   1425.49316     659.2217     552.7973   1425.49316     659.2217     552.7973
   1425.47791     660.4237     554.5785   1425.47791     660.4237     554.5785
   1425.46265     662.0597     555.2123   1425.46265     662.0597     555.2123
   1425.44739     662.5483     557.2250   1425.44739     662.5483     557.2250
   1425.43213     664.3934     558.0250   1425.43213     664.3934     558.0250
   1425.41687     666.3246     559.8317   1425.41687     666.3246     559.8317
   1425.40161     666.9402     558.9325   1425.40161     666.9402     558.9325
   1425.38635     667.1447     561.4774   1425.38635     667.1447     561.4774
   1425.37109     668.8970     561.6855   1425.37109     668.8970     561.6855
   1425.35583     669.5526     562.5696   1425.35583     669.5526     562.5696
   1425.34058     670.7380     563.6950   1425.34058     670.7380     563.6950
   1425.32532     671.3301     564.2906   1425.32532     671.3301     564.2906
   1425.31006     673.2564     565.2470   1425.31006     673.2564     565.2470
   1425.29480     673.6597     565.9485   1425.29480     673.6597     565.9485
   1425.27954     673.9297     567.1356   1425.27954     673.9297     567.1356
   1425.26428     675.4384     567.6771   1425.26428     675.4384     567.6771
   1425.24902     676.4132     568.2537   1425.24902     676.4132     568.2537
   1425.23376     676.4738     569.5161   1425.23376     676.4738     569.5161
   1425.21851     677.3973     570.4000   1425.21851     677.3973     570.4000
   1425.20325     678.4731     571.2604   1425.20325     678.4731     571.2604
   1425.18799     679.3018     571.6593   1425.18799     679.3018     571.6593
   1425.17273     678.8636     573.0370   1425.17273     678.8636     573.0370
   1425.15747     682.2173     573.0953   1425.15747     682.2173     573.0953
   1425.14221     680.7571     573.9365   1425.14221     680.7571     573.9365
   1425.12695     682.4894     575.9010   1425.12695     682.4894     575.9010
   1425.11169     682.6008     576.4301   1425.11169     682.6008     576.4301
   1425.09644     683.8725     576.1357   1425.09644     683.8725     576.1357
   1425.08118     682.7239     577.2576   1425.08118     682.7239     577.2576
   1425.06592     684.0976     579.1347   1425.06592     684.0976     579.1347
   1425.05066     684.9984     579.6930   1425.05066     684.9984     579.6930
   1425.03540     685.5330     580.1071   1425.03540     685.5330     580.1071
   1425.02014     686.3965     580.3632   1425.02014     686.3965     580.3632
   1425.00488     687.2722     581.4363   1425.00488     687.2722     581.4363
   1424.98962     687.2670     582.0776   1424.98962     687.2670     582.0776
   1424.97437     687.2869     582.2818   1424.97437     687.2869     582.2818
   1424.95911     688.2963     583.9738   1424.95911     688.2963     583.9738
   1424.94385     688.0753     584.5254   1424.94385     688.0753     584.5254
   1424.92859     689.6445     585.5106   1424.92859     689.6445     585.5106
   1424.91333     689.3803     585.3196   1424.91333     689.3803     585.3196
   1424.89807     690.0754     586.4393   1424.89807     690.0754     586.4393
   1424.88281     689.6851     587.5134   1424.88281     689.6851     587.5134
   1424.86755     692.6071     587.9833   1424.86755     692.6071     587.9833
   1424.85229     692.0782     588.6810   1424.85229     692.0782     588.6810
   1424.83704     690.2422     588.3314   1424.83704     690.2422     588.3314
   1424.82178     691.3955     588.6216   1424.82178     691.3955     588.6216
   1424.80652     692.0995     589.5546   1424.80652     692.0995     589.5546
   1424.79126     691.2731     590.2220   1424.79126     691.2731     590.2220
   1424.77600     691.7590     590.4772   1424.77600     691.7590     590.4772
   1424.76074     692.6481     591.8844   1424.76074     692.6481     591.8844
   1424.74548     691.5194     593.2789   1424.74548     691.5194     593.2789
   1424.73022     692.1522     593.7944   1424.73022     692.1522     593.7944
   1424.71497     693.8522     592.9949   1424.71497     693.8522     592.9949
   1424.69971     693.0219     595.2552   1424.69971     693.0219     595.2552
   1424.68445     693.7222     595.9881   1424.68445     693.7222     595.9881
   1424.66919     693.5773     596.7167   1424.66919     693.5773     596.7167
   1424.65393     692.6805     596.7982   1424.65393     692.6805     596.7982
   1424.63867     693.5455     596.7230   1424.63867     693.5455     596.7230
   1424.62341     693.3464     597.8961   1424.62341     693.3464     597.8961
   1424.60815     694.3288     597.5288   1424.60815     694.3288     597.5288
   1424.59290     693.5123     599.0413   1424.59290     693.5123     599.0413
   1424.57764     693.9709     599.4378   1424.57764     693.9709     599.4378
   1424.56238     693.6502     600.2800   1424.56238     693.6502     600.2800
   1424.54712     693.1105     600.1132   1424.54712     693.1105     600.1132
   1424.53186     694.9706     602.1013   1424.53186     694.9706     602.1013
   1424.51660     694.5915     601.9626   1424.51660     694.5915     601.9626
   1424.50134     695.1533     602.8694   1424.50134     695.1533     602.8694
   1424.48608     693.9835     604.4667   1424.48608     693.9835     604.4667
   1424.47083     694.1661     603.1937   1424.47083     694.1661     603.1937
   1424.45557     694.1225     604.5124   1424.45557     694.1225     604.5124
   1424.44031     692.8484     605.2552   1424.44031     692.8484     605.2552
   1424.42505     693.6512     606.2753   1424.42505     693.6512     606.2753
   1424.40979     694.1406     606.5494   1424.40979     694.1406     606.5494
   1424.39453     693.9265     606.1633   1424.39453     693.9265     606.1633
   1424.37927     693.3215     607.4536   1424.37927     693.3215     607.4536
   1424.36401     694.6866     608.4506   1424.36401     694.6866     608.4506
   1424.34875     693.8756     609.1224   1424.34875     693.8756     609.1224
   1424.33350     694.4343     609.4050   1424.33350     694.4343     609.4050
   1424.31824     694.1500     610.0723   1424.31824     694.1500     610.0723
   1424.30298     694.0549     611.9114   1424.30298     694.0549     611.9114
   1424.28772     692.5541     611.7368   1424.28772     692.5541     611.7368
   1424.27246     694.0464     612.8856   1424.27246     694.0464     612.8856
   1424.25720     693.3515     613.3406   1424.25720     693.3515     613.3406
   1424.24194     693.0117     613.8934   1424.24194     693.0117     613.8934
   1424.22668     693.4130     614.1310   1424.22668     693.4130     614.1310
   1424.21143     693.2726     615.7031   1424.21143     693.2726     615.7031
   1424.19617     692.6100     616.0956   1424.19617     692.6100     616.0956
   1424.18091     692.9265     615.8055   1424.18091     692.9265     615.8055
   1424.16565     692.9682     614.8657   1424.16565     692.9682     614.8657
