#     FILENAME=!Skynet_57528_lach-hhg-140_20462_20964.cyb.fits
#     BASENAME=Skynet_57528_lach-hhg-140_20462_20964
#     SRC_NAME=lach-hhg-140
#     OBSERVER=hhgmadison16_9500
#     DATE_OBS=2016-05-20T17:17:30.680
#        OBSID=20462
#      SCANNUM=20964
#          MJD=57528.7215
#          UTC=62340
#     SCANTYPE=track
#     DATAMODE=HIRES
#     TUNEFREQ=1420.0000
# Actual_FREQ1=1420.0000
# Actual_FREQ2=1420.0000
#    LO1Tuning=6870.000
#     RFFILTER=1355_1435
#        OBSBW=-15.6250
#        NCHAN=1024 
#        FOCUS=37.0709
#           RA=03:07:14.94
#          DEC=58:17:51.17
#      RA(hrs)=3.120800
#     DEC(deg)=58.297500
#    AZIM(deg)=343.112
#    ELEV(deg)=68.709
#     IFattens=11.00, 9.00
#      WARNING=None
#    TCAL_XL1=7.9635
#    TCAL_YR1=9.1340
#    TCAL_XL2=7.9635
#    TCAL_YR2=9.1340
#     TRX_XL1=11.7060
#     TRX_YR1=11.7060
#     TRX_XL2=11.7060
#     TRX_YR2=11.7060
#        TAVE=1.0000
#Freq1(MHz)          XL1          YR1  Freq2(MHz)          XL2          YR2 

   1427.81250     381.7864     251.6275   1427.81250     381.7864     251.6275
   1427.79724     382.9038     252.9846   1427.79724     382.9038     252.9846
   1427.78198     383.9515     253.8090   1427.78198     383.9515     253.8090
   1427.76672     384.2715     254.8076   1427.76672     384.2715     254.8076
   1427.75146     384.8761     255.5563   1427.75146     384.8761     255.5563
   1427.73621     385.9006     256.5408   1427.73621     385.9006     256.5408
   1427.72095     386.8369     257.9776   1427.72095     386.8369     257.9776
   1427.70569     388.1110     259.3252   1427.70569     388.1110     259.3252
   1427.69043     388.6586     260.1255   1427.69043     388.6586     260.1255
   1427.67517     390.1877     261.1142   1427.67517     390.1877     261.1142
   1427.65991     391.2371     262.4561   1427.65991     391.2371     262.4561
   1427.64465     391.8784     263.6530   1427.64465     391.8784     263.6530
   1427.62939     393.3866     264.9258   1427.62939     393.3866     264.9258
   1427.61414     394.3322     266.0765   1427.61414     394.3322     266.0765
   1427.59888     396.3654     267.9521   1427.59888     396.3654     267.9521
   1427.58362     397.4260     269.0346   1427.58362     397.4260     269.0346
   1427.56836     399.5019     270.1134   1427.56836     399.5019     270.1134
   1427.55310     400.4708     271.8125   1427.55310     400.4708     271.8125
   1427.53784     401.9853     273.1407   1427.53784     401.9853     273.1407
   1427.52258     403.7755     274.3643   1427.52258     403.7755     274.3643
   1427.50732     406.0078     276.2183   1427.50732     406.0078     276.2183
   1427.49207     406.9293     277.8946   1427.49207     406.9293     277.8946
   1427.47681     409.1783     279.0801   1427.47681     409.1783     279.0801
   1427.46155     410.7996     281.0250   1427.46155     410.7996     281.0250
   1427.44629     412.7180     281.9228   1427.44629     412.7180     281.9228
   1427.43103     415.2916     284.2393   1427.43103     415.2916     284.2393
   1427.41577     416.9890     285.4900   1427.41577     416.9890     285.4900
   1427.40051     418.9845     287.7138   1427.40051     418.9845     287.7138
   1427.38525     420.9127     289.0622   1427.38525     420.9127     289.0622
   1427.37000     423.1834     290.6850   1427.37000     423.1834     290.6850
   1427.35474     425.0999     292.7900   1427.35474     425.0999     292.7900
   1427.33948     426.8074     294.3680   1427.33948     426.8074     294.3680
   1427.32422     429.3724     295.9033   1427.32422     429.3724     295.9033
   1427.30896     432.2900     298.0598   1427.30896     432.2900     298.0598
   1427.29370     434.0645     299.7266   1427.29370     434.0645     299.7266
   1427.27844     436.3127     301.7819   1427.27844     436.3127     301.7819
   1427.26318     439.1251     303.4475   1427.26318     439.1251     303.4475
   1427.24792     441.6217     305.3480   1427.24792     441.6217     305.3480
   1427.23267     444.3353     306.7307   1427.23267     444.3353     306.7307
   1427.21741     446.7174     309.3314   1427.21741     446.7174     309.3314
   1427.20215     449.3745     311.3336   1427.20215     449.3745     311.3336
   1427.18689     451.8086     312.6161   1427.18689     451.8086     312.6161
   1427.17163     454.6232     315.1748   1427.17163     454.6232     315.1748
   1427.15637     457.2625     317.0833   1427.15637     457.2625     317.0833
   1427.14111     459.4883     319.3650   1427.14111     459.4883     319.3650
   1427.12585     462.7625     320.7958   1427.12585     462.7625     320.7958
   1427.11060     465.3736     323.2947   1427.11060     465.3736     323.2947
   1427.09534     468.6060     324.3089   1427.09534     468.6060     324.3089
   1427.08008     470.1846     327.2294   1427.08008     470.1846     327.2294
   1427.06482     473.4739     329.1093   1427.06482     473.4739     329.1093
   1427.04956     476.8210     330.3386   1427.04956     476.8210     330.3386
   1427.03430     479.7098     332.8242   1427.03430     479.7098     332.8242
   1427.01904     483.0041     334.4744   1427.01904     483.0041     334.4744
   1427.00378     485.0065     336.6718   1427.00378     485.0065     336.6718
   1426.98853     488.0750     339.1158   1426.98853     488.0750     339.1158
   1426.97327     490.9566     340.8224   1426.97327     490.9566     340.8224
   1426.95801     494.4439     342.6164   1426.95801     494.4439     342.6164
   1426.94275     497.4594     345.2874   1426.94275     497.4594     345.2874
   1426.92749     500.6714     347.9307   1426.92749     500.6714     347.9307
   1426.91223     504.5866     349.6137   1426.91223     504.5866     349.6137
   1426.89697     508.2071     351.7436   1426.89697     508.2071     351.7436
   1426.88171     510.9111     353.3202   1426.88171     510.9111     353.3202
   1426.86646     512.9796     355.9267   1426.86646     512.9796     355.9267
   1426.85120     517.1395     357.3454   1426.85120     517.1395     357.3454
   1426.83594     519.8101     359.7125   1426.83594     519.8101     359.7125
   1426.82068     523.2294     361.3783   1426.82068     523.2294     361.3783
   1426.80542     526.4160     363.6217   1426.80542     526.4160     363.6217
   1426.79016     529.4025     365.6377   1426.79016     529.4025     365.6377
   1426.77490     532.0620     367.8832   1426.77490     532.0620     367.8832
   1426.75964     536.0081     369.2986   1426.75964     536.0081     369.2986
   1426.74438     539.7589     371.5471   1426.74438     539.7589     371.5471
   1426.72913     541.3630     373.6853   1426.72913     541.3630     373.6853
   1426.71387     545.1150     376.3828   1426.71387     545.1150     376.3828
   1426.69861     548.9433     377.6664   1426.69861     548.9433     377.6664
   1426.68335     552.6586     380.1321   1426.68335     552.6586     380.1321
   1426.66809     555.6682     381.9942   1426.66809     555.6682     381.9942
   1426.65283     559.0735     383.6357   1426.65283     559.0735     383.6357
   1426.63757     561.3350     385.6129   1426.63757     561.3350     385.6129
   1426.62231     564.6249     388.6275   1426.62231     564.6249     388.6275
   1426.60706     568.5048     390.4227   1426.60706     568.5048     390.4227
   1426.59180     571.7429     391.5016   1426.59180     571.7429     391.5016
   1426.57654     574.9497     393.1729   1426.57654     574.9497     393.1729
   1426.56128     577.9320     395.2832   1426.56128     577.9320     395.2832
   1426.54602     581.8892     397.0289   1426.54602     581.8892     397.0289
   1426.53076     584.8555     398.8586   1426.53076     584.8555     398.8586
   1426.51550     587.8746     400.6930   1426.51550     587.8746     400.6930
   1426.50024     591.2601     402.5876   1426.50024     591.2601     402.5876
   1426.48499     593.2208     405.0486   1426.48499     593.2208     405.0486
   1426.46973     597.1757     406.4969   1426.46973     597.1757     406.4969
   1426.45447     601.3212     408.5314   1426.45447     601.3212     408.5314
   1426.43921     604.3738     410.0565   1426.43921     604.3738     410.0565
   1426.42395     607.0227     411.6617   1426.42395     607.0227     411.6617
   1426.40869     610.4719     414.2219   1426.40869     610.4719     414.2219
   1426.39343     614.2902     416.0081   1426.39343     614.2902     416.0081
   1426.37817     617.6026     417.8033   1426.37817     617.6026     417.8033
   1426.36292     620.3463     419.3693   1426.36292     620.3463     419.3693
   1426.34766     623.0231     421.3149   1426.34766     623.0231     421.3149
   1426.33240     626.6214     422.5225   1426.33240     626.6214     422.5225
   1426.31714     630.0854     424.3807   1426.31714     630.0854     424.3807
   1426.30188     632.8708     426.3449   1426.30188     632.8708     426.3449
   1426.28662     636.1360     427.0788   1426.28662     636.1360     427.0788
   1426.27136     638.1725     428.6480   1426.27136     638.1725     428.6480
   1426.25610     642.2574     430.0959   1426.25610     642.2574     430.0959
   1426.24084     644.5234     431.8467   1426.24084     644.5234     431.8467
   1426.22559     647.1516     433.3221   1426.22559     647.1516     433.3221
   1426.21033     650.2929     435.0956   1426.21033     650.2929     435.0956
   1426.19507     654.2500     436.9697   1426.19507     654.2500     436.9697
   1426.17981     657.2511     437.7005   1426.17981     657.2511     437.7005
   1426.16455     659.9614     439.8659   1426.16455     659.9614     439.8659
   1426.14929     662.6133     441.0710   1426.14929     662.6133     441.0710
   1426.13403     665.7812     442.3284   1426.13403     665.7812     442.3284
   1426.11877     668.2864     443.9673   1426.11877     668.2864     443.9673
   1426.10352     670.4728     445.5076   1426.10352     670.4728     445.5076
   1426.08826     674.5409     446.7485   1426.08826     674.5409     446.7485
   1426.07300     676.4471     447.5216   1426.07300     676.4471     447.5216
   1426.05774     679.2863     449.5455   1426.05774     679.2863     449.5455
   1426.04248     682.5914     450.7875   1426.04248     682.5914     450.7875
   1426.02722     685.0847     452.5154   1426.02722     685.0847     452.5154
   1426.01196     687.2169     453.0271   1426.01196     687.2169     453.0271
   1425.99670     691.0739     454.3182   1425.99670     691.0739     454.3182
   1425.98145     693.7960     455.7820   1425.98145     693.7960     455.7820
   1425.96619     695.2670     456.4912   1425.96619     695.2670     456.4912
   1425.95093     697.7396     458.2449   1425.95093     697.7396     458.2449
   1425.93567     700.1648     459.5270   1425.93567     700.1648     459.5270
   1425.92041     701.9989     460.8269   1425.92041     701.9989     460.8269
   1425.90515     704.8443     462.3944   1425.90515     704.8443     462.3944
   1425.88989     707.8596     463.6553   1425.88989     707.8596     463.6553
   1425.87463     710.8398     464.6710   1425.87463     710.8398     464.6710
   1425.85938     712.6578     465.3570   1425.85938     712.6578     465.3570
   1425.84412     716.0064     465.8300   1425.84412     716.0064     465.8300
   1425.82886     717.9344     467.8856   1425.82886     717.9344     467.8856
   1425.81360     719.2109     469.0487   1425.81360     719.2109     469.0487
   1425.79834     722.1509     470.0830   1425.79834     722.1509     470.0830
   1425.78308     725.3408     470.9541   1425.78308     725.3408     470.9541
   1425.76782     726.2688     471.6993   1425.76782     726.2688     471.6993
   1425.75256     727.7160     473.0587   1425.75256     727.7160     473.0587
   1425.73730     731.5163     473.7062   1425.73730     731.5163     473.7062
   1425.72205     732.8986     474.7060   1425.72205     732.8986     474.7060
   1425.70679     734.3629     476.1962   1425.70679     734.3629     476.1962
   1425.69153     736.7902     476.0654   1425.69153     736.7902     476.0654
   1425.67627     736.3185     477.5371   1425.67627     736.3185     477.5371
   1425.66101     739.5153     478.4083   1425.66101     739.5153     478.4083
   1425.64575     743.0952     479.2581   1425.64575     743.0952     479.2581
   1425.63049     744.2119     479.9102   1425.63049     744.2119     479.9102
   1425.61523     747.5023     480.7307   1425.61523     747.5023     480.7307
   1425.59998     747.7648     481.7502   1425.59998     747.7648     481.7502
   1425.58472     749.8469     482.3148   1425.58472     749.8469     482.3148
   1425.56946     750.7314     482.8141   1425.56946     750.7314     482.8141
   1425.55420     753.0205     483.4931   1425.55420     753.0205     483.4931
   1425.53894     755.2386     485.4444   1425.53894     755.2386     485.4444
   1425.52368     757.8826     485.7199   1425.52368     757.8826     485.7199
   1425.50842     757.8541     486.7223   1425.50842     757.8541     486.7223
   1425.49316     760.4878     487.0527   1425.49316     760.4878     487.0527
   1425.47791     761.8887     488.2415   1425.47791     761.8887     488.2415
   1425.46265     761.9478     488.2512   1425.46265     761.9478     488.2512
   1425.44739     764.1475     489.3334   1425.44739     764.1475     489.3334
   1425.43213     765.6941     490.1736   1425.43213     765.6941     490.1736
   1425.41687     767.5231     491.1775   1425.41687     767.5231     491.1775
   1425.40161     768.2441     490.8344   1425.40161     768.2441     490.8344
   1425.38635     769.6411     491.1450   1425.38635     769.6411     491.1450
   1425.37109     771.4941     492.7106   1425.37109     771.4941     492.7106
   1425.35583     772.3560     492.5211   1425.35583     772.3560     492.5211
   1425.34058     773.6879     494.2560   1425.34058     773.6879     494.2560
   1425.32532     775.6284     492.8475   1425.32532     775.6284     492.8475
   1425.31006     775.5731     494.1926   1425.31006     775.5731     494.1926
   1425.29480     776.4453     495.0302   1425.29480     776.4453     495.0302
   1425.27954     777.2861     495.3884   1425.27954     777.2861     495.3884
   1425.26428     779.7747     495.6436   1425.26428     779.7747     495.6436
   1425.24902     779.2249     497.1994   1425.24902     779.2249     497.1994
   1425.23376     780.8395     496.8554   1425.23376     780.8395     496.8554
   1425.21851     781.7935     497.0665   1425.21851     781.7935     497.0665
   1425.20325     782.8622     498.0699   1425.20325     782.8622     498.0699
   1425.18799     783.5731     498.7218   1425.18799     783.5731     498.7218
   1425.17273     785.5312     498.5705   1425.17273     785.5312     498.5705
   1425.15747     785.8617     498.6545   1425.15747     785.8617     498.6545
   1425.14221     785.4871     499.4036   1425.14221     785.4871     499.4036
   1425.12695     785.7874     500.4962   1425.12695     785.7874     500.4962
   1425.11169     787.5266     499.6463   1425.11169     787.5266     499.6463
   1425.09644     789.2975     500.9547   1425.09644     789.2975     500.9547
   1425.08118     788.8950     501.3531   1425.08118     788.8950     501.3531
   1425.06592     790.5651     501.3900   1425.06592     790.5651     501.3900
   1425.05066     790.3414     502.0568   1425.05066     790.3414     502.0568
   1425.03540     790.3333     502.4719   1425.03540     790.3333     502.4719
   1425.02014     791.6921     503.1618   1425.02014     791.6921     503.1618
   1425.00488     792.2729     502.9612   1425.00488     792.2729     502.9612
   1424.98962     792.9292     503.3586   1424.98962     792.9292     503.3586
   1424.97437     793.4563     503.2077   1424.97437     793.4563     503.2077
   1424.95911     793.6663     503.8644   1424.95911     793.6663     503.8644
   1424.94385     794.3023     504.2919   1424.94385     794.3023     504.2919
   1424.92859     794.1232     504.3283   1424.92859     794.1232     504.3283
   1424.91333     794.7509     505.0247   1424.91333     794.7509     505.0247
   1424.89807     794.2639     504.4111   1424.89807     794.2639     504.4111
   1424.88281     797.2167     505.2287   1424.88281     797.2167     505.2287
   1424.86755     796.1750     505.4628   1424.86755     796.1750     505.4628
   1424.85229     797.3064     505.5250   1424.85229     797.3064     505.5250
   1424.83704     796.6534     506.1240   1424.83704     796.6534     506.1240
   1424.82178     796.7688     505.1803   1424.82178     796.7688     505.1803
   1424.80652     796.2854     506.3450   1424.80652     796.2854     506.3450
   1424.79126     797.2735     506.3847   1424.79126     797.2735     506.3847
   1424.77600     797.2390     507.3625   1424.77600     797.2390     507.3625
   1424.76074     797.5441     506.6446   1424.76074     797.5441     506.6446
   1424.74548     798.5784     507.2686   1424.74548     798.5784     507.2686
   1424.73022     797.9330     506.6161   1424.73022     797.9330     506.6161
   1424.71497     798.5037     507.4131   1424.71497     798.5037     507.4131
   1424.69971     796.9687     506.5229   1424.69971     796.9687     506.5229
   1424.68445     798.3594     507.7244   1424.68445     798.3594     507.7244
   1424.66919     797.4785     507.7538   1424.66919     797.4785     507.7538
   1424.65393     797.9263     507.6818   1424.65393     797.9263     507.6818
   1424.63867     797.3617     508.0861   1424.63867     797.3617     508.0861
   1424.62341     795.9319     508.0174   1424.62341     795.9319     508.0174
   1424.60815     796.9940     507.3708   1424.60815     796.9940     507.3708
   1424.59290     797.7346     508.4232   1424.59290     797.7346     508.4232
   1424.57764     797.0539     507.9412   1424.57764     797.0539     507.9412
   1424.56238     797.4986     508.8242   1424.56238     797.4986     508.8242
   1424.54712     798.4421     507.9554   1424.54712     798.4421     507.9554
   1424.53186     797.1565     507.9133   1424.53186     797.1565     507.9133
   1424.51660     795.7684     508.6427   1424.51660     795.7684     508.6427
   1424.50134     797.0803     508.9857   1424.50134     797.0803     508.9857
   1424.48608     795.4227     508.5265   1424.48608     795.4227     508.5265
   1424.47083     797.0657     508.7043   1424.47083     797.0657     508.7043
   1424.45557     796.5287     509.3546   1424.45557     796.5287     509.3546
   1424.44031     795.3833     508.5338   1424.44031     795.3833     508.5338
   1424.42505     795.7804     508.1034   1424.42505     795.7804     508.1034
   1424.40979     795.9260     508.5667   1424.40979     795.9260     508.5667
   1424.39453     795.6534     508.3612   1424.39453     795.6534     508.3612
   1424.37927     794.3160     508.6981   1424.37927     794.3160     508.6981
   1424.36401     794.8386     509.2995   1424.36401     794.8386     509.2995
   1424.34875     793.9630     509.7061   1424.34875     793.9630     509.7061
   1424.33350     792.7551     509.0313   1424.33350     792.7551     509.0313
   1424.31824     792.7186     509.7814   1424.31824     792.7186     509.7814
   1424.30298     792.6278     509.2484   1424.30298     792.6278     509.2484
   1424.28772     792.2015     509.0097   1424.28772     792.2015     509.0097
   1424.27246     792.9952     509.5471   1424.27246     792.9952     509.5471
   1424.25720     791.0482     508.7652   1424.25720     791.0482     508.7652
   1424.24194     791.4170     508.6277   1424.24194     791.4170     508.6277
   1424.22668     790.4178     508.8546   1424.22668     790.4178     508.8546
   1424.21143     789.2585     508.7366   1424.21143     789.2585     508.7366
   1424.19617     791.2424     509.0479   1424.19617     791.2424     509.0479
   1424.18091     789.8548     508.6074   1424.18091     789.8548     508.6074
   1424.16565     789.6154     507.3863   1424.16565     789.6154     507.3863
