#     FILENAME=!Skynet_57528_lach-hhg-99_20344_20906.cyb.fits
#     BASENAME=Skynet_57528_lach-hhg-99_20344_20906
#     SRC_NAME=lach-hhg-99
#     OBSERVER=hhgmadison16_9500
#     DATE_OBS=2016-05-20T15:21:35.930
#        OBSID=20344
#      SCANNUM=20906
#          MJD=57528.6410
#          UTC=55384
#     SCANTYPE=track
#     DATAMODE=HIRES
#     TUNEFREQ=1420.0000
# Actual_FREQ1=1420.0000
# Actual_FREQ2=1420.0000
#    LO1Tuning=6870.000
#     RFFILTER=1355_1435
#        OBSBW=-15.6250
#        NCHAN=1024 
#        FOCUS=37.1368
#           RA=21:54:29.45
#          DEC=54:26:08.02
#      RA(hrs)=21.908200
#     DEC(deg)=54.435600
#    AZIM(deg)=311.785
#    ELEV(deg)=46.765
#     IFattens=10.00, 9.00
#      WARNING=None
#    TCAL_XL1=7.9635
#    TCAL_YR1=9.1340
#    TCAL_XL2=7.9635
#    TCAL_YR2=9.1340
#     TRX_XL1=11.7060
#     TRX_YR1=11.7060
#     TRX_XL2=11.7060
#     TRX_YR2=11.7060
#        TAVE=1.0000
#Freq1(MHz)          XL1          YR1  Freq2(MHz)          XL2          YR2 

   1427.81250     369.6903     284.9409   1427.81250     369.6903     284.9409
   1427.79724     370.5418     285.9603   1427.79724     370.5418     285.9603
   1427.78198     371.7067     286.8295   1427.78198     371.7067     286.8295
   1427.76672     371.8684     287.1054   1427.76672     371.8684     287.1054
   1427.75146     373.3422     287.7658   1427.75146     373.3422     287.7658
   1427.73621     374.2602     288.9624   1427.73621     374.2602     288.9624
   1427.72095     375.4286     290.1692   1427.72095     375.4286     290.1692
   1427.70569     376.4839     290.8647   1427.70569     376.4839     290.8647
   1427.69043     376.4800     291.7639   1427.69043     376.4800     291.7639
   1427.67517     378.3759     292.6112   1427.67517     378.3759     292.6112
   1427.65991     379.7637     293.4520   1427.65991     379.7637     293.4520
   1427.64465     380.7692     294.4680   1427.64465     380.7692     294.4680
   1427.62939     382.1370     296.4664   1427.62939     382.1370     296.4664
   1427.61414     383.3904     297.0029   1427.61414     383.3904     297.0029
   1427.59888     384.8565     298.6017   1427.59888     384.8565     298.6017
   1427.58362     386.2693     299.7193   1427.58362     386.2693     299.7193
   1427.56836     387.5221     301.2844   1427.56836     387.5221     301.2844
   1427.55310     389.2959     302.4263   1427.55310     389.2959     302.4263
   1427.53784     390.8356     303.8597   1427.53784     390.8356     303.8597
   1427.52258     393.1270     304.7670   1427.52258     393.1270     304.7670
   1427.50732     393.9627     306.5360   1427.50732     393.9627     306.5360
   1427.49207     396.1410     307.4191   1427.49207     396.1410     307.4191
   1427.47681     398.0059     309.4257   1427.47681     398.0059     309.4257
   1427.46155     399.9749     311.0413   1427.46155     399.9749     311.0413
   1427.44629     401.6101     311.9982   1427.44629     401.6101     311.9982
   1427.43103     403.6384     314.1541   1427.43103     403.6384     314.1541
   1427.41577     405.3129     315.1505   1427.41577     405.3129     315.1505
   1427.40051     407.2693     317.3324   1427.40051     407.2693     317.3324
   1427.38525     409.0504     318.2293   1427.38525     409.0504     318.2293
   1427.37000     411.8238     319.7775   1427.37000     411.8238     319.7775
   1427.35474     413.7366     322.4561   1427.35474     413.7366     322.4561
   1427.33948     415.9767     323.8731   1427.33948     415.9767     323.8731
   1427.32422     418.4284     325.4292   1427.32422     418.4284     325.4292
   1427.30896     420.6525     327.0346   1427.30896     420.6525     327.0346
   1427.29370     422.9434     328.7599   1427.29370     422.9434     328.7599
   1427.27844     424.9289     330.8153   1427.27844     424.9289     330.8153
   1427.26318     427.7670     332.8063   1427.26318     427.7670     332.8063
   1427.24792     430.2488     334.7992   1427.24792     430.2488     334.7992
   1427.23267     432.5191     336.4399   1427.23267     432.5191     336.4399
   1427.21741     435.3995     338.5208   1427.21741     435.3995     338.5208
   1427.20215     437.4062     340.5012   1427.20215     437.4062     340.5012
   1427.18689     439.9155     342.3675   1427.18689     439.9155     342.3675
   1427.17163     443.2891     343.9637   1427.17163     443.2891     343.9637
   1427.15637     444.9901     346.5540   1427.15637     444.9901     346.5540
   1427.14111     447.4395     347.9012   1427.14111     447.4395     347.9012
   1427.12585     449.9798     350.4583   1427.12585     449.9798     350.4583
   1427.11060     453.7284     352.4147   1427.11060     453.7284     352.4147
   1427.09534     456.3062     354.4308   1427.09534     456.3062     354.4308
   1427.08008     458.7502     356.5820   1427.08008     458.7502     356.5820
   1427.06482     461.5223     358.8272   1427.06482     461.5223     358.8272
   1427.04956     464.5898     361.3443   1427.04956     464.5898     361.3443
   1427.03430     466.9440     362.4637   1427.03430     466.9440     362.4637
   1427.01904     470.6253     364.8488   1427.01904     470.6253     364.8488
   1427.00378     473.0393     367.6964   1427.00378     473.0393     367.6964
   1426.98853     475.7621     369.6759   1426.98853     475.7621     369.6759
   1426.97327     479.0255     371.7078   1426.97327     479.0255     371.7078
   1426.95801     482.1250     373.9996   1426.95801     482.1250     373.9996
   1426.94275     484.4402     376.1330   1426.94275     484.4402     376.1330
   1426.92749     487.9154     377.8334   1426.92749     487.9154     377.8334
   1426.91223     489.8141     379.7832   1426.91223     489.8141     379.7832
   1426.89697     493.6175     382.6137   1426.89697     493.6175     382.6137
   1426.88171     496.5085     384.4632   1426.88171     496.5085     384.4632
   1426.86646     498.6447     386.9422   1426.86646     498.6447     386.9422
   1426.85120     502.6750     389.3274   1426.85120     502.6750     389.3274
   1426.83594     505.1855     391.2939   1426.83594     505.1855     391.2939
   1426.82068     509.2633     393.6291   1426.82068     509.2633     393.6291
   1426.80542     512.0630     396.0979   1426.80542     512.0630     396.0979
   1426.79016     515.3900     397.9293   1426.79016     515.3900     397.9293
   1426.77490     517.4907     399.7406   1426.77490     517.4907     399.7406
   1426.75964     521.3466     402.3519   1426.75964     521.3466     402.3519
   1426.74438     523.5403     405.0966   1426.74438     523.5403     405.0966
   1426.72913     526.9640     407.3673   1426.72913     526.9640     407.3673
   1426.71387     531.0372     409.3059   1426.71387     531.0372     409.3059
   1426.69861     533.6749     411.7787   1426.69861     533.6749     411.7787
   1426.68335     537.1126     414.0956   1426.68335     537.1126     414.0956
   1426.66809     540.1784     415.7941   1426.66809     540.1784     415.7941
   1426.65283     542.6925     418.2135   1426.65283     542.6925     418.2135
   1426.63757     545.4815     421.0999   1426.63757     545.4815     421.0999
   1426.62231     548.9968     427.0567   1426.62231     548.9968     427.0567
   1426.60706     552.8658     425.8076   1426.60706     552.8658     425.8076
   1426.59180     554.9361     427.4669   1426.59180     554.9361     427.4669
   1426.57654     558.0715     429.0509   1426.57654     558.0715     429.0509
   1426.56128     561.3036     431.9338   1426.56128     561.3036     431.9338
   1426.54602     564.5596     434.2348   1426.54602     564.5596     434.2348
   1426.53076     567.7404     436.7081   1426.53076     567.7404     436.7081
   1426.51550     570.2692     438.3354   1426.51550     570.2692     438.3354
   1426.50024     574.0418     440.6834   1426.50024     574.0418     440.6834
   1426.48499     575.7905     442.6218   1426.48499     575.7905     442.6218
   1426.46973     578.6289     445.2853   1426.46973     578.6289     445.2853
   1426.45447     582.1314     447.1556   1426.45447     582.1314     447.1556
   1426.43921     586.0075     448.7164   1426.43921     586.0075     448.7164
   1426.42395     588.2290     451.5339   1426.42395     588.2290     451.5339
   1426.40869     591.5334     453.4500   1426.40869     591.5334     453.4500
   1426.39343     594.5121     455.2530   1426.39343     594.5121     455.2530
   1426.37817     597.0302     458.0532   1426.37817     597.0302     458.0532
   1426.36292     600.0414     459.8839   1426.36292     600.0414     459.8839
   1426.34766     603.6648     461.4940   1426.34766     603.6648     461.4940
   1426.33240     604.9929     464.8481   1426.33240     604.9929     464.8481
   1426.31714     609.0704     465.9624   1426.31714     609.0704     465.9624
   1426.30188     611.9704     468.1622   1426.30188     611.9704     468.1622
   1426.28662     614.8876     470.7499   1426.28662     614.8876     470.7499
   1426.27136     617.8201     472.0867   1426.27136     617.8201     472.0867
   1426.25610     619.7771     475.0164   1426.25610     619.7771     475.0164
   1426.24084     622.5683     475.9245   1426.24084     622.5683     475.9245
   1426.22559     625.9277     478.6275   1426.22559     625.9277     478.6275
   1426.21033     628.4211     480.3073   1426.21033     628.4211     480.3073
   1426.19507     631.2347     482.7975   1426.19507     631.2347     482.7975
   1426.17981     632.4842     484.5588   1426.17981     632.4842     484.5588
   1426.16455     636.7186     486.2557   1426.16455     636.7186     486.2557
   1426.14929     639.5872     487.0498   1426.14929     639.5872     487.0498
   1426.13403     642.5806     490.2581   1426.13403     642.5806     490.2581
   1426.11877     643.5471     492.1278   1426.11877     643.5471     492.1278
   1426.10352     647.1117     494.0349   1426.10352     647.1117     494.0349
   1426.08826     648.2101     495.9552   1426.08826     648.2101     495.9552
   1426.07300     651.1478     497.4634   1426.07300     651.1478     497.4634
   1426.05774     653.8273     500.5429   1426.05774     653.8273     500.5429
   1426.04248     655.7268     500.9024   1426.04248     655.7268     500.9024
   1426.02722     659.2825     503.4132   1426.02722     659.2825     503.4132
   1426.01196     660.4434     504.4704   1426.01196     660.4434     504.4704
   1425.99670     662.7504     507.5541   1425.99670     662.7504     507.5541
   1425.98145     665.5279     508.1719   1425.98145     665.5279     508.1719
   1425.96619     667.7141     510.2210   1425.96619     667.7141     510.2210
   1425.95093     668.8366     512.1957   1425.95093     668.8366     512.1957
   1425.93567     672.6368     514.0955   1425.93567     672.6368     514.0955
   1425.92041     673.8062     515.5056   1425.92041     673.8062     515.5056
   1425.90515     677.1435     517.6866   1425.90515     677.1435     517.6866
   1425.88989     678.5319     519.8642   1425.88989     678.5319     519.8642
   1425.87463     680.6384     520.7873   1425.87463     680.6384     520.7873
   1425.85938     682.4786     521.8607   1425.85938     682.4786     521.8607
   1425.84412     684.2226     524.2896   1425.84412     684.2226     524.2896
   1425.82886     686.2897     525.6298   1425.82886     686.2897     525.6298
   1425.81360     688.3149     526.5466   1425.81360     688.3149     526.5466
   1425.79834     691.2629     528.0261   1425.79834     691.2629     528.0261
   1425.78308     692.8618     530.9638   1425.78308     692.8618     530.9638
   1425.76782     694.2759     532.5864   1425.76782     694.2759     532.5864
   1425.75256     696.5127     533.3661   1425.75256     696.5127     533.3661
   1425.73730     696.9463     535.7950   1425.73730     696.9463     535.7950
   1425.72205     699.6756     537.3763   1425.72205     699.6756     537.3763
   1425.70679     701.5811     538.3932   1425.70679     701.5811     538.3932
   1425.69153     703.8865     539.5546   1425.69153     703.8865     539.5546
   1425.67627     705.4725     540.6662   1425.67627     705.4725     540.6662
   1425.66101     706.5145     541.4722   1425.66101     706.5145     541.4722
   1425.64575     708.5001     543.8406   1425.64575     708.5001     543.8406
   1425.63049     708.7602     545.6538   1425.63049     708.7602     545.6538
   1425.61523     710.9897     546.5226   1425.61523     710.9897     546.5226
   1425.59998     712.3259     548.8832   1425.59998     712.3259     548.8832
   1425.58472     713.5451     549.3928   1425.58472     713.5451     549.3928
   1425.56946     714.8918     550.6411   1425.56946     714.8918     550.6411
   1425.55420     716.6823     552.1598   1425.55420     716.6823     552.1598
   1425.53894     717.6311     552.6700   1425.53894     717.6311     552.6700
   1425.52368     718.9428     554.2560   1425.52368     718.9428     554.2560
   1425.50842     720.1562     555.3396   1425.50842     720.1562     555.3396
   1425.49316     721.4133     558.3243   1425.49316     721.4133     558.3243
   1425.47791     722.6293     558.9894   1425.47791     722.6293     558.9894
   1425.46265     724.1008     559.8700   1425.46265     724.1008     559.8700
   1425.44739     725.5201     561.5579   1425.44739     725.5201     561.5579
   1425.43213     727.3249     562.5848   1425.43213     727.3249     562.5848
   1425.41687     729.5079     563.0525   1425.41687     729.5079     563.0525
   1425.40161     729.5298     565.0873   1425.40161     729.5298     565.0873
   1425.38635     729.8482     565.6891   1425.38635     729.8482     565.6891
   1425.37109     731.0867     566.9770   1425.37109     731.0867     566.9770
   1425.35583     731.5020     567.8661   1425.35583     731.5020     567.8661
   1425.34058     732.2424     568.9255   1425.34058     732.2424     568.9255
   1425.32532     733.3855     571.1768   1425.32532     733.3855     571.1768
   1425.31006     735.2557     572.2140   1425.31006     735.2557     572.2140
   1425.29480     735.7393     573.1235   1425.29480     735.7393     573.1235
   1425.27954     736.8108     573.9164   1425.27954     736.8108     573.9164
   1425.26428     736.9855     575.7498   1425.26428     736.9855     575.7498
   1425.24902     736.6694     574.5462   1425.24902     736.6694     574.5462
   1425.23376     739.4103     577.4968   1425.23376     739.4103     577.4968
   1425.21851     738.8178     578.2646   1425.21851     738.8178     578.2646
   1425.20325     739.1328     579.3690   1425.20325     739.1328     579.3690
   1425.18799     740.9050     579.9047   1425.18799     740.9050     579.9047
   1425.17273     742.5447     581.2919   1425.17273     742.5447     581.2919
   1425.15747     743.0449     582.9891   1425.15747     743.0449     582.9891
   1425.14221     742.4254     582.6706   1425.14221     742.4254     582.6706
   1425.12695     743.3270     584.1532   1425.12695     743.3270     584.1532
   1425.11169     742.5049     585.7858   1425.11169     742.5049     585.7858
   1425.09644     744.5181     586.1129   1425.09644     744.5181     586.1129
   1425.08118     743.4647     586.2875   1425.08118     743.4647     586.2875
   1425.06592     745.6123     587.7774   1425.06592     745.6123     587.7774
   1425.05066     747.2985     588.8096   1425.05066     747.2985     588.8096
   1425.03540     747.6851     589.3595   1425.03540     747.6851     589.3595
   1425.02014     746.5872     590.4007   1425.02014     746.5872     590.4007
   1425.00488     748.2546     591.8241   1425.00488     748.2546     591.8241
   1424.98962     747.7382     592.5687   1424.98962     747.7382     592.5687
   1424.97437     747.0740     593.4160   1424.97437     747.0740     593.4160
   1424.95911     748.0408     594.6730   1424.95911     748.0408     594.6730
   1424.94385     747.5026     595.7032   1424.94385     747.5026     595.7032
   1424.92859     748.6832     596.4239   1424.92859     748.6832     596.4239
   1424.91333     749.5982     597.7245   1424.91333     749.5982     597.7245
   1424.89807     749.3821     598.3389   1424.89807     749.3821     598.3389
   1424.88281     749.8519     598.2432   1424.88281     749.8519     598.2432
   1424.86755     748.9114     599.3148   1424.86755     748.9114     599.3148
   1424.85229     750.1990     600.5245   1424.85229     750.1990     600.5245
   1424.83704     749.6451     601.0629   1424.83704     749.6451     601.0629
   1424.82178     750.4022     602.2570   1424.82178     750.4022     602.2570
   1424.80652     751.6046     602.2606   1424.80652     751.6046     602.2606
   1424.79126     749.8531     602.6616   1424.79126     749.8531     602.6616
   1424.77600     749.8783     604.7945   1424.77600     749.8783     604.7945
   1424.76074     750.0880     604.9729   1424.76074     750.0880     604.9729
   1424.74548     751.6793     606.1503   1424.74548     751.6793     606.1503
   1424.73022     750.0419     605.9786   1424.73022     750.0419     605.9786
   1424.71497     750.6778     606.8117   1424.71497     750.6778     606.8117
   1424.69971     750.5103     607.5774   1424.69971     750.5103     607.5774
   1424.68445     750.2817     608.4427   1424.68445     750.2817     608.4427
   1424.66919     751.1770     609.7167   1424.66919     751.1770     609.7167
   1424.65393     751.1548     610.2990   1424.65393     751.1548     610.2990
   1424.63867     750.2759     609.9557   1424.63867     750.2759     609.9557
   1424.62341     750.1339     611.7333   1424.62341     750.1339     611.7333
   1424.60815     749.3135     611.6688   1424.60815     749.3135     611.6688
   1424.59290     750.5161     612.4418   1424.59290     750.5161     612.4418
   1424.57764     751.6914     613.5561   1424.57764     751.6914     613.5561
   1424.56238     750.1682     613.3922   1424.56238     750.1682     613.3922
   1424.54712     750.3633     613.5837   1424.54712     750.3633     613.5837
   1424.53186     750.5438     615.0813   1424.53186     750.5438     615.0813
   1424.51660     750.2361     615.9642   1424.51660     750.2361     615.9642
   1424.50134     749.6770     617.5241   1424.50134     749.6770     617.5241
   1424.48608     749.9583     617.3916   1424.48608     749.9583     617.3916
   1424.47083     749.8805     618.2652   1424.47083     749.8805     618.2652
   1424.45557     749.4545     619.1038   1424.45557     749.4545     619.1038
   1424.44031     750.0011     619.4417   1424.44031     750.0011     619.4417
   1424.42505     749.1840     619.5742   1424.42505     749.1840     619.5742
   1424.40979     748.7991     620.7200   1424.40979     748.7991     620.7200
   1424.39453     748.8309     622.4169   1424.39453     748.8309     622.4169
   1424.37927     748.6198     621.4354   1424.37927     748.6198     621.4354
   1424.36401     748.0316     621.5128   1424.36401     748.0316     621.5128
   1424.34875     749.3187     623.4935   1424.34875     749.3187     623.4935
   1424.33350     748.8970     623.7127   1424.33350     748.8970     623.7127
   1424.31824     748.4722     624.1497   1424.31824     748.4722     624.1497
   1424.30298     746.1970     624.3008   1424.30298     746.1970     624.3008
   1424.28772     746.0197     625.1846   1424.28772     746.0197     625.1846
   1424.27246     747.4867     625.5212   1424.27246     747.4867     625.5212
   1424.25720     747.1624     626.2900   1424.25720     747.1624     626.2900
   1424.24194     747.8441     626.8237   1424.24194     747.8441     626.8237
   1424.22668     746.6595     627.1557   1424.22668     746.6595     627.1557
   1424.21143     746.5670     627.4113   1424.21143     746.5670     627.4113
   1424.19617     745.4089     628.1804   1424.19617     745.4089     628.1804
   1424.18091     745.3951     629.3984   1424.18091     745.3951     629.3984
   1424.16565     745.9895     629.3102   1424.16565     745.9895     629.3102
