#     FILENAME=!Skynet_57528_lachhhg92_20322_20899.cyb.fits
#     BASENAME=Skynet_57528_lachhhg92_20322_20899
#     SRC_NAME=lachhhg92
#     OBSERVER=hhgmadison16_9500
#     DATE_OBS=2016-05-20T15:07:47.750
#        OBSID=20322
#      SCANNUM=20899
#          MJD=57528.6315
#          UTC=54556
#     SCANTYPE=track
#     DATAMODE=HIRES
#     TUNEFREQ=1420.0000
# Actual_FREQ1=1420.0000
# Actual_FREQ2=1420.0000
#    LO1Tuning=6870.000
#     RFFILTER=1355_1435
#        OBSBW=-15.6250
#        NCHAN=1024 
#        FOCUS=37.0709
#           RA=21:20:27.75
#          DEC=49:45:56.75
#      RA(hrs)=21.341000
#     DEC(deg)=49.765800
#    AZIM(deg)=305.850
#    ELEV(deg)=43.038
#     IFattens=10.00, 9.00
#      WARNING=None
#    TCAL_XL1=7.9635
#    TCAL_YR1=9.1340
#    TCAL_XL2=7.9635
#    TCAL_YR2=9.1340
#     TRX_XL1=11.7060
#     TRX_YR1=11.7060
#     TRX_XL2=11.7060
#     TRX_YR2=11.7060
#        TAVE=1.0000
#Freq1(MHz)          XL1          YR1  Freq2(MHz)          XL2          YR2 

   1427.81250     371.4416     291.2946   1427.81250     371.4416     291.2946
   1427.79724     372.4895     292.7633   1427.79724     372.4895     292.7633
   1427.78198     373.1780     293.4209   1427.78198     373.1780     293.4209
   1427.76672     373.8351     293.9217   1427.76672     373.8351     293.9217
   1427.75146     374.5257     294.7404   1427.75146     374.5257     294.7404
   1427.73621     375.0175     295.7552   1427.73621     375.0175     295.7552
   1427.72095     376.4211     296.4655   1427.72095     376.4211     296.4655
   1427.70569     377.2683     298.0566   1427.70569     377.2683     298.0566
   1427.69043     378.3291     298.7144   1427.69043     378.3291     298.7144
   1427.67517     379.4872     299.9891   1427.67517     379.4872     299.9891
   1427.65991     380.3089     301.1712   1427.65991     380.3089     301.1712
   1427.64465     381.1273     302.0638   1427.64465     381.1273     302.0638
   1427.62939     383.1707     303.1668   1427.62939     383.1707     303.1668
   1427.61414     384.1933     304.2607   1427.61414     384.1933     304.2607
   1427.59888     385.7732     305.3551   1427.59888     385.7732     305.3551
   1427.58362     386.7935     307.0584   1427.58362     386.7935     307.0584
   1427.56836     388.3194     308.1067   1427.56836     388.3194     308.1067
   1427.55310     390.0345     309.7492   1427.55310     390.0345     309.7492
   1427.53784     390.7325     310.7505   1427.53784     390.7325     310.7505
   1427.52258     393.2112     312.3338   1427.52258     393.2112     312.3338
   1427.50732     394.7684     313.8147   1427.50732     394.7684     313.8147
   1427.49207     396.2887     315.7985   1427.49207     396.2887     315.7985
   1427.47681     398.4067     316.5479   1427.47681     398.4067     316.5479
   1427.46155     400.5572     318.5409   1427.46155     400.5572     318.5409
   1427.44629     401.7141     320.1954   1427.44629     401.7141     320.1954
   1427.43103     403.6201     321.5728   1427.43103     403.6201     321.5728
   1427.41577     405.5617     323.2126   1427.41577     405.5617     323.2126
   1427.40051     407.2555     324.9435   1427.40051     407.2555     324.9435
   1427.38525     409.3294     326.3075   1427.38525     409.3294     326.3075
   1427.37000     412.1593     328.5838   1427.37000     412.1593     328.5838
   1427.35474     413.9975     330.0734   1427.35474     413.9975     330.0734
   1427.33948     416.4260     331.4595   1427.33948     416.4260     331.4595
   1427.32422     418.7003     333.2754   1427.32422     418.7003     333.2754
   1427.30896     420.2040     334.8737   1427.30896     420.2040     334.8737
   1427.29370     422.5218     337.0936   1427.29370     422.5218     337.0936
   1427.27844     424.5466     338.8401   1427.27844     424.5466     338.8401
   1427.26318     427.5337     341.2519   1427.26318     427.5337     341.2519
   1427.24792     430.2429     342.6219   1427.24792     430.2429     342.6219
   1427.23267     431.6555     344.5191   1427.23267     431.6555     344.5191
   1427.21741     434.7962     346.8668   1427.21741     434.7962     346.8668
   1427.20215     437.7594     348.6187   1427.20215     437.7594     348.6187
   1427.18689     439.5547     350.2467   1427.18689     439.5547     350.2467
   1427.17163     442.1072     352.7297   1427.17163     442.1072     352.7297
   1427.15637     444.6727     354.8237   1427.15637     444.6727     354.8237
   1427.14111     447.5508     356.3964   1427.14111     447.5508     356.3964
   1427.12585     450.2418     358.4872   1427.12585     450.2418     358.4872
   1427.11060     453.4171     360.9111   1427.11060     453.4171     360.9111
   1427.09534     455.5722     362.7409   1427.09534     455.5722     362.7409
   1427.08008     458.2466     365.6391   1427.08008     458.2466     365.6391
   1427.06482     460.9589     367.3369   1427.06482     460.9589     367.3369
   1427.04956     463.6321     368.8820   1427.04956     463.6321     368.8820
   1427.03430     466.3748     371.6664   1427.03430     466.3748     371.6664
   1427.01904     468.8113     373.9756   1427.01904     468.8113     373.9756
   1427.00378     471.9473     376.2599   1427.00378     471.9473     376.2599
   1426.98853     474.8503     377.8439   1426.98853     474.8503     377.8439
   1426.97327     477.7870     380.4058   1426.97327     477.7870     380.4058
   1426.95801     480.8640     382.8258   1426.95801     480.8640     382.8258
   1426.94275     484.9557     385.3879   1426.94275     484.9557     385.3879
   1426.92749     487.2764     387.1870   1426.92749     487.2764     387.1870
   1426.91223     489.3509     389.1839   1426.91223     489.3509     389.1839
   1426.89697     493.0294     392.0729   1426.89697     493.0294     392.0729
   1426.88171     496.8675     393.7763   1426.88171     496.8675     393.7763
   1426.86646     499.2155     396.4155   1426.86646     499.2155     396.4155
   1426.85120     502.5979     398.4215   1426.85120     502.5979     398.4215
   1426.83594     505.9015     400.8666   1426.83594     505.9015     400.8666
   1426.82068     508.2654     403.2260   1426.82068     508.2654     403.2260
   1426.80542     511.5534     405.0571   1426.80542     511.5534     405.0571
   1426.79016     514.1602     407.5345   1426.79016     514.1602     407.5345
   1426.77490     517.5625     409.7830   1426.77490     517.5625     409.7830
   1426.75964     520.6954     411.8574   1426.75964     520.6954     411.8574
   1426.74438     523.7667     414.3680   1426.74438     523.7667     414.3680
   1426.72913     526.8054     416.2880   1426.72913     526.8054     416.2880
   1426.71387     530.5648     419.0991   1426.71387     530.5648     419.0991
   1426.69861     532.9777     421.1167   1426.69861     532.9777     421.1167
   1426.68335     536.5550     423.6114   1426.68335     536.5550     423.6114
   1426.66809     538.7490     425.8723   1426.66809     538.7490     425.8723
   1426.65283     541.6940     428.4667   1426.65283     541.6940     428.4667
   1426.63757     546.1412     431.3088   1426.63757     546.1412     431.3088
   1426.62231     549.7427     433.5144   1426.62231     549.7427     433.5144
   1426.60706     551.8613     435.5196   1426.60706     551.8613     435.5196
   1426.59180     553.9852     437.6980   1426.59180     553.9852     437.6980
   1426.57654     557.0935     439.0699   1426.57654     557.0935     439.0699
   1426.56128     561.6880     442.0912   1426.56128     561.6880     442.0912
   1426.54602     564.8686     443.8761   1426.54602     564.8686     443.8761
   1426.53076     566.9703     446.6075   1426.53076     566.9703     446.6075
   1426.51550     570.1825     449.1399   1426.51550     570.1825     449.1399
   1426.50024     572.1738     450.6687   1426.50024     572.1738     450.6687
   1426.48499     576.9158     452.3570   1426.48499     576.9158     452.3570
   1426.46973     579.7469     455.0567   1426.46973     579.7469     455.0567
   1426.45447     582.4232     457.6154   1426.45447     582.4232     457.6154
   1426.43921     585.4820     460.0500   1426.43921     585.4820     460.0500
   1426.42395     588.3707     462.4353   1426.42395     588.3707     462.4353
   1426.40869     591.2017     463.9272   1426.40869     591.2017     463.9272
   1426.39343     594.5544     466.6750   1426.39343     594.5544     466.6750
   1426.37817     596.9793     467.5633   1426.37817     596.9793     467.5633
   1426.36292     599.0975     469.5862   1426.36292     599.0975     469.5862
   1426.34766     602.4598     472.5953   1426.34766     602.4598     472.5953
   1426.33240     606.1949     473.8866   1426.33240     606.1949     473.8866
   1426.31714     609.1077     476.9668   1426.31714     609.1077     476.9668
   1426.30188     612.3710     478.1800   1426.30188     612.3710     478.1800
   1426.28662     615.5817     480.9418   1426.28662     615.5817     480.9418
   1426.27136     617.7938     483.3591   1426.27136     617.7938     483.3591
   1426.25610     619.7950     485.1618   1426.25610     619.7950     485.1618
   1426.24084     624.1528     487.3063   1426.24084     624.1528     487.3063
   1426.22559     626.8340     489.4059   1426.22559     626.8340     489.4059
   1426.21033     627.6960     491.4443   1426.21033     627.6960     491.4443
   1426.19507     630.4166     492.7024   1426.19507     630.4166     492.7024
   1426.17981     633.2886     495.1072   1426.17981     633.2886     495.1072
   1426.16455     637.2221     496.5227   1426.16455     637.2221     496.5227
   1426.14929     639.8515     498.4305   1426.14929     639.8515     498.4305
   1426.13403     642.6937     500.6939   1426.13403     642.6937     500.6939
   1426.11877     644.6472     502.9903   1426.11877     644.6472     502.9903
   1426.10352     647.2080     504.8297   1426.10352     647.2080     504.8297
   1426.08826     650.4156     506.0227   1426.08826     650.4156     506.0227
   1426.07300     652.5276     508.5849   1426.07300     652.5276     508.5849
   1426.05774     654.9237     510.4714   1426.05774     654.9237     510.4714
   1426.04248     656.5012     511.9522   1426.04248     656.5012     511.9522
   1426.02722     660.7633     513.1861   1426.02722     660.7633     513.1861
   1426.01196     661.4160     515.1520   1426.01196     661.4160     515.1520
   1425.99670     663.9005     517.6702   1425.99670     663.9005     517.6702
   1425.98145     667.1364     518.4987   1425.98145     667.1364     518.4987
   1425.96619     668.5204     520.9374   1425.96619     668.5204     520.9374
   1425.95093     670.8479     521.7756   1425.95093     670.8479     521.7756
   1425.93567     674.4912     524.5930   1425.93567     674.4912     524.5930
   1425.92041     676.0214     526.2196   1425.92041     676.0214     526.2196
   1425.90515     679.0618     527.6862   1425.90515     679.0618     527.6862
   1425.88989     680.2730     528.9026   1425.88989     680.2730     528.9026
   1425.87463     682.7610     531.3255   1425.87463     682.7610     531.3255
   1425.85938     685.8779     531.7621   1425.85938     685.8779     531.7621
   1425.84412     687.3079     534.1929   1425.84412     687.3079     534.1929
   1425.82886     689.1337     535.7925   1425.82886     689.1337     535.7925
   1425.81360     690.5510     537.9564   1425.81360     690.5510     537.9564
   1425.79834     693.7864     539.5237   1425.79834     693.7864     539.5237
   1425.78308     694.1924     541.2782   1425.78308     694.1924     541.2782
   1425.76782     697.5438     543.2885   1425.76782     697.5438     543.2885
   1425.75256     698.5293     543.6445   1425.75256     698.5293     543.6445
   1425.73730     700.0994     545.6936   1425.73730     700.0994     545.6936
   1425.72205     703.3483     546.8159   1425.72205     703.3483     546.8159
   1425.70679     702.6827     548.3503   1425.70679     702.6827     548.3503
   1425.69153     705.1910     549.6147   1425.69153     705.1910     549.6147
   1425.67627     707.3948     551.7769   1425.67627     707.3948     551.7769
   1425.66101     709.4561     552.7414   1425.66101     709.4561     552.7414
   1425.64575     711.1039     554.3222   1425.64575     711.1039     554.3222
   1425.63049     713.2874     555.9836   1425.63049     713.2874     555.9836
   1425.61523     713.4335     556.8121   1425.61523     713.4335     556.8121
   1425.59998     717.0435     558.4030   1425.59998     717.0435     558.4030
   1425.58472     718.2386     559.3184   1425.58472     718.2386     559.3184
   1425.56946     719.2480     560.9653   1425.56946     719.2480     560.9653
   1425.55420     719.6298     562.8586   1425.55420     719.6298     562.8586
   1425.53894     721.2938     563.2846   1425.53894     721.2938     563.2846
   1425.52368     722.6415     564.8290   1425.52368     722.6415     564.8290
   1425.50842     724.2593     566.3438   1425.50842     724.2593     566.3438
   1425.49316     727.2214     568.6095   1425.49316     727.2214     568.6095
   1425.47791     727.1243     569.2214   1425.47791     727.1243     569.2214
   1425.46265     729.4221     570.8264   1425.46265     729.4221     570.8264
   1425.44739     731.0467     571.5131   1425.44739     731.0467     571.5131
   1425.43213     731.4231     572.8925   1425.43213     731.4231     572.8925
   1425.41687     732.5855     574.8582   1425.41687     732.5855     574.8582
   1425.40161     732.8958     574.4977   1425.40161     732.8958     574.4977
   1425.38635     733.4944     577.1166   1425.38635     733.4944     577.1166
   1425.37109     736.0956     577.9919   1425.37109     736.0956     577.9919
   1425.35583     736.0997     577.9375   1425.35583     736.0997     577.9375
   1425.34058     737.8853     579.9570   1425.34058     737.8853     579.9570
   1425.32532     738.0361     581.5013   1425.32532     738.0361     581.5013
   1425.31006     738.9525     583.2056   1425.31006     738.9525     583.2056
   1425.29480     739.9693     582.8675   1425.29480     739.9693     582.8675
   1425.27954     740.5876     584.3570   1425.27954     740.5876     584.3570
   1425.26428     741.8809     585.9037   1425.26428     741.8809     585.9037
   1425.24902     743.6729     585.5032   1425.24902     743.6729     585.5032
   1425.23376     743.2954     586.4950   1425.23376     743.2954     586.4950
   1425.21851     744.8347     588.5588   1425.21851     744.8347     588.5588
   1425.20325     744.1400     589.3397   1425.20325     744.1400     589.3397
   1425.18799     747.4688     591.5674   1425.18799     747.4688     591.5674
   1425.17273     747.2146     591.8663   1425.17273     747.2146     591.8663
   1425.15747     747.6760     592.6260   1425.15747     747.6760     592.6260
   1425.14221     748.8170     593.6665   1425.14221     748.8170     593.6665
   1425.12695     749.3260     594.7275   1425.12695     749.3260     594.7275
   1425.11169     749.9950     596.5713   1425.11169     749.9950     596.5713
   1425.09644     750.2023     596.8563   1425.09644     750.2023     596.8563
   1425.08118     750.4179     598.8827   1425.08118     750.4179     598.8827
   1425.06592     751.0311     598.7266   1425.06592     751.0311     598.7266
   1425.05066     751.5331     598.5338   1425.05066     751.5331     598.5338
   1425.03540     752.0282     600.6098   1425.03540     752.0282     600.6098
   1425.02014     753.2137     601.6937   1425.02014     753.2137     601.6937
   1425.00488     753.7344     602.3850   1425.00488     753.7344     602.3850
   1424.98962     753.2235     602.5114   1424.98962     753.2235     602.5114
   1424.97437     753.9872     605.0247   1424.97437     753.9872     605.0247
   1424.95911     754.8187     605.0771   1424.95911     754.8187     605.0771
   1424.94385     754.3649     606.5085   1424.94385     754.3649     606.5085
   1424.92859     755.7107     607.0413   1424.92859     755.7107     607.0413
   1424.91333     756.0154     607.7469   1424.91333     756.0154     607.7469
   1424.89807     757.0251     607.8364   1424.89807     757.0251     607.8364
   1424.88281     755.6879     609.0034   1424.88281     755.6879     609.0034
   1424.86755     757.6924     610.7825   1424.86755     757.6924     610.7825
   1424.85229     757.0864     611.0364   1424.85229     757.0864     611.0364
   1424.83704     755.4745     611.4168   1424.83704     755.4745     611.4168
   1424.82178     757.9344     612.4615   1424.82178     757.9344     612.4615
   1424.80652     758.1343     613.1449   1424.80652     758.1343     613.1449
   1424.79126     757.8185     614.5931   1424.79126     757.8185     614.5931
   1424.77600     758.3925     615.4084   1424.77600     758.3925     615.4084
   1424.76074     758.4930     616.6692   1424.76074     758.4930     616.6692
   1424.74548     758.3356     616.5004   1424.74548     758.3356     616.5004
   1424.73022     759.6287     617.9059   1424.73022     759.6287     617.9059
   1424.71497     758.7924     618.9520   1424.71497     758.7924     618.9520
   1424.69971     758.1208     619.1566   1424.69971     758.1208     619.1566
   1424.68445     759.6422     620.1413   1424.68445     759.6422     620.1413
   1424.66919     758.6447     620.5004   1424.66919     758.6447     620.5004
   1424.65393     758.3041     620.3697   1424.65393     758.3041     620.3697
   1424.63867     758.4003     620.9752   1424.63867     758.4003     620.9752
   1424.62341     759.2181     621.8995   1424.62341     759.2181     621.8995
   1424.60815     758.2621     623.5784   1424.60815     758.2621     623.5784
   1424.59290     759.9656     623.9303   1424.59290     759.9656     623.9303
   1424.57764     758.2728     623.4214   1424.57764     758.2728     623.4214
   1424.56238     758.2200     624.8020   1424.56238     758.2200     624.8020
   1424.54712     758.0200     626.3065   1424.54712     758.0200     626.3065
   1424.53186     758.3119     627.1879   1424.53186     758.3119     627.1879
   1424.51660     759.2099     626.5913   1424.51660     759.2099     626.5913
   1424.50134     758.1476     627.6259   1424.50134     758.1476     627.6259
   1424.48608     757.5145     628.1747   1424.48608     757.5145     628.1747
   1424.47083     756.7983     629.1689   1424.47083     756.7983     629.1689
   1424.45557     757.2603     629.5347   1424.45557     757.2603     629.5347
   1424.44031     757.5858     630.3832   1424.44031     757.5858     630.3832
   1424.42505     757.2964     631.6787   1424.42505     757.2964     631.6787
   1424.40979     758.1518     631.8386   1424.40979     758.1518     631.8386
   1424.39453     756.4686     631.8705   1424.39453     756.4686     631.8705
   1424.37927     757.4283     633.3774   1424.37927     757.4283     633.3774
   1424.36401     757.9650     633.5961   1424.36401     757.9650     633.5961
   1424.34875     757.1523     634.9653   1424.34875     757.1523     634.9653
   1424.33350     757.2225     633.6450   1424.33350     757.2225     633.6450
   1424.31824     755.7454     636.2861   1424.31824     755.7454     636.2861
   1424.30298     756.8000     635.9825   1424.30298     756.8000     635.9825
   1424.28772     755.1604     637.1055   1424.28772     755.1604     637.1055
   1424.27246     756.9224     636.7905   1424.27246     756.9224     636.7905
   1424.25720     755.3803     637.8175   1424.25720     755.3803     637.8175
   1424.24194     754.2350     638.4617   1424.24194     754.2350     638.4617
   1424.22668     756.0406     639.7568   1424.22668     756.0406     639.7568
   1424.21143     755.8259     639.9682   1424.21143     755.8259     639.9682
   1424.19617     754.2242     640.5065   1424.19617     754.2242     640.5065
   1424.18091     754.5035     641.2150   1424.18091     754.5035     641.2150
   1424.16565     753.5732     640.7587   1424.16565     753.5732     640.7587
