#     FILENAME=!Skynet_57528_lach-hhg-157_20514_20981.cyb.fits
#     BASENAME=Skynet_57528_lach-hhg-157_20514_20981
#     SRC_NAME=lach-hhg-157
#     OBSERVER=hhgmadison16_9500
#     DATE_OBS=2016-05-20T17:51:48.930
#        OBSID=20514
#      SCANNUM=20981
#          MJD=57528.7454
#          UTC=64398
#     SCANTYPE=track
#     DATAMODE=HIRES
#     TUNEFREQ=1420.0000
# Actual_FREQ1=1420.0000
# Actual_FREQ2=1420.0000
#    LO1Tuning=6870.000
#     RFFILTER=1355_1435
#        OBSBW=-15.6250
#        NCHAN=1024 
#        FOCUS=37.0709
#           RA=04:35:25.80
#          DEC=47:29:48.47
#      RA(hrs)=4.590500
#     DEC(deg)=47.496800
#    AZIM(deg)=8.998
#    ELEV(deg)=80.699
#     IFattens=10.00, 9.00
#      WARNING=None
#    TCAL_XL1=7.9635
#    TCAL_YR1=9.1340
#    TCAL_XL2=7.9635
#    TCAL_YR2=9.1340
#     TRX_XL1=11.7060
#     TRX_YR1=11.7060
#     TRX_XL2=11.7060
#     TRX_YR2=11.7060
#        TAVE=1.0000
#Freq1(MHz)          XL1          YR1  Freq2(MHz)          XL2          YR2 

   1427.81250     376.2852     338.7053   1427.81250     376.2852     338.7053
   1427.79724     377.4797     339.8653   1427.79724     377.4797     339.8653
   1427.78198     378.0336     341.6714   1427.78198     378.0336     341.6714
   1427.76672     379.0145     343.7411   1427.76672     379.0145     343.7411
   1427.75146     380.1404     345.3721   1427.75146     380.1404     345.3721
   1427.73621     380.5836     347.4182   1427.73621     380.5836     347.4182
   1427.72095     381.5991     348.6017   1427.72095     381.5991     348.6017
   1427.70569     383.2491     350.9309   1427.70569     383.2491     350.9309
   1427.69043     382.9508     352.8194   1427.69043     382.9508     352.8194
   1427.67517     384.5915     354.9202   1427.67517     384.5915     354.9202
   1427.65991     385.5180     356.3758   1427.65991     385.5180     356.3758
   1427.64465     386.6650     357.7135   1427.64465     386.6650     357.7135
   1427.62939     388.2797     360.2451   1427.62939     388.2797     360.2451
   1427.61414     388.6422     362.3617   1427.61414     388.6422     362.3617
   1427.59888     390.5471     364.8510   1427.59888     390.5471     364.8510
   1427.58362     391.7000     366.8102   1427.58362     391.7000     366.8102
   1427.56836     393.2461     368.9206   1427.56836     393.2461     368.9206
   1427.55310     395.3740     371.4200   1427.55310     395.3740     371.4200
   1427.53784     396.3103     373.3529   1427.53784     396.3103     373.3529
   1427.52258     397.7945     375.6578   1427.52258     397.7945     375.6578
   1427.50732     400.1234     378.1277   1427.50732     400.1234     378.1277
   1427.49207     401.3894     381.0243   1427.49207     401.3894     381.0243
   1427.47681     403.0671     382.7287   1427.47681     403.0671     382.7287
   1427.46155     404.9795     385.8762   1427.46155     404.9795     385.8762
   1427.44629     405.9117     388.1181   1427.44629     405.9117     388.1181
   1427.43103     408.3332     390.3870   1427.43103     408.3332     390.3870
   1427.41577     410.6730     393.4055   1427.41577     410.6730     393.4055
   1427.40051     411.9961     394.7044   1427.40051     411.9961     394.7044
   1427.38525     413.3987     398.5435   1427.38525     413.3987     398.5435
   1427.37000     416.1289     400.2933   1427.37000     416.1289     400.2933
   1427.35474     417.8705     403.5817   1427.35474     417.8705     403.5817
   1427.33948     420.2810     406.6528   1427.33948     420.2810     406.6528
   1427.32422     421.6225     408.5321   1427.32422     421.6225     408.5321
   1427.30896     424.4412     410.8036   1427.30896     424.4412     410.8036
   1427.29370     427.1658     414.1587   1427.29370     427.1658     414.1587
   1427.27844     429.3270     416.6803   1427.27844     429.3270     416.6803
   1427.26318     431.2224     419.5206   1427.26318     431.2224     419.5206
   1427.24792     433.1823     422.1146   1427.24792     433.1823     422.1146
   1427.23267     435.6914     424.6097   1427.23267     435.6914     424.6097
   1427.21741     438.5829     428.1122   1427.21741     438.5829     428.1122
   1427.20215     441.5664     430.4827   1427.20215     441.5664     430.4827
   1427.18689     443.8005     432.3819   1427.18689     443.8005     432.3819
   1427.17163     446.1602     435.7591   1427.17163     446.1602     435.7591
   1427.15637     448.5659     438.1460   1427.15637     448.5659     438.1460
   1427.14111     451.2510     441.2953   1427.14111     451.2510     441.2953
   1427.12585     453.9815     443.5994   1427.12585     453.9815     443.5994
   1427.11060     456.3703     446.7960   1427.11060     456.3703     446.7960
   1427.09534     458.7042     450.0818   1427.09534     458.7042     450.0818
   1427.08008     461.8401     452.1657   1427.08008     461.8401     452.1657
   1427.06482     464.5678     455.1599   1427.06482     464.5678     455.1599
   1427.04956     467.2228     457.4462   1427.04956     467.2228     457.4462
   1427.03430     469.4427     460.8724   1427.03430     469.4427     460.8724
   1427.01904     471.8605     463.0616   1427.01904     471.8605     463.0616
   1427.00378     474.9871     466.4876   1427.00378     474.9871     466.4876
   1426.98853     478.0152     468.3869   1426.98853     478.0152     468.3869
   1426.97327     480.8126     470.5030   1426.97327     480.8126     470.5030
   1426.95801     483.0689     473.4248   1426.95801     483.0689     473.4248
   1426.94275     486.3997     476.3323   1426.94275     486.3997     476.3323
   1426.92749     489.9828     479.4200   1426.92749     489.9828     479.4200
   1426.91223     492.3822     482.4180   1426.91223     492.3822     482.4180
   1426.89697     495.8824     484.1338   1426.89697     495.8824     484.1338
   1426.88171     497.7904     487.1479   1426.88171     497.7904     487.1479
   1426.86646     502.1554     489.6557   1426.86646     502.1554     489.6557
   1426.85120     503.6820     492.2679   1426.85120     503.6820     492.2679
   1426.83594     507.6887     494.5565   1426.83594     507.6887     494.5565
   1426.82068     510.7868     496.7635   1426.82068     510.7868     496.7635
   1426.80542     512.7212     499.3230   1426.80542     512.7212     499.3230
   1426.79016     516.5830     503.1327   1426.79016     516.5830     503.1327
   1426.77490     518.9111     505.0646   1426.77490     518.9111     505.0646
   1426.75964     522.6128     507.6237   1426.75964     522.6128     507.6237
   1426.74438     526.0280     510.1494   1426.74438     526.0280     510.1494
   1426.72913     528.5792     512.4203   1426.72913     528.5792     512.4203
   1426.71387     531.5394     514.8963   1426.71387     531.5394     514.8963
   1426.69861     534.3345     516.7855   1426.69861     534.3345     516.7855
   1426.68335     537.8134     519.0641   1426.68335     537.8134     519.0641
   1426.66809     540.3695     521.2388   1426.66809     540.3695     521.2388
   1426.65283     543.7352     523.9407   1426.65283     543.7352     523.9407
   1426.63757     548.0147     526.7741   1426.63757     548.0147     526.7741
   1426.62231     551.8195     531.2578   1426.62231     551.8195     531.2578
   1426.60706     552.8049     530.7757   1426.60706     552.8049     530.7757
   1426.59180     556.5706     533.2838   1426.59180     556.5706     533.2838
   1426.57654     559.8940     534.8415   1426.57654     559.8940     534.8415
   1426.56128     562.7439     537.3317   1426.56128     562.7439     537.3317
   1426.54602     566.9288     539.2672   1426.54602     566.9288     539.2672
   1426.53076     567.9513     542.1467   1426.53076     567.9513     542.1467
   1426.51550     571.6642     544.4226   1426.51550     571.6642     544.4226
   1426.50024     574.6571     545.6269   1426.50024     574.6571     545.6269
   1426.48499     577.9380     547.8698   1426.48499     577.9380     547.8698
   1426.46973     580.6252     549.5195   1426.46973     580.6252     549.5195
   1426.45447     584.4095     551.8821   1426.45447     584.4095     551.8821
   1426.43921     587.5702     553.6274   1426.43921     587.5702     553.6274
   1426.42395     591.1225     555.9149   1426.42395     591.1225     555.9149
   1426.40869     593.9888     557.3735   1426.40869     593.9888     557.3735
   1426.39343     596.2793     559.4926   1426.39343     596.2793     559.4926
   1426.37817     599.7315     561.6059   1426.37817     599.7315     561.6059
   1426.36292     602.5271     562.6382   1426.36292     602.5271     562.6382
   1426.34766     605.2718     564.7119   1426.34766     605.2718     564.7119
   1426.33240     608.2802     566.3536   1426.33240     608.2802     566.3536
   1426.31714     610.7693     568.2488   1426.31714     610.7693     568.2488
   1426.30188     614.0618     570.2204   1426.30188     614.0618     570.2204
   1426.28662     616.9631     572.2678   1426.28662     616.9631     572.2678
   1426.27136     620.3500     573.1987   1426.27136     620.3500     573.1987
   1426.25610     623.7172     575.1006   1426.25610     623.7172     575.1006
   1426.24084     625.4890     576.4080   1426.24084     625.4890     576.4080
   1426.22559     629.0303     577.8790   1426.22559     629.0303     577.8790
   1426.21033     631.6853     579.7128   1426.21033     631.6853     579.7128
   1426.19507     634.6989     580.3329   1426.19507     634.6989     580.3329
   1426.17981     637.7441     583.1047   1426.17981     637.7441     583.1047
   1426.16455     639.6866     582.2771   1426.16455     639.6866     582.2771
   1426.14929     642.7061     585.3922   1426.14929     642.7061     585.3922
   1426.13403     645.2284     586.8334   1426.13403     645.2284     586.8334
   1426.11877     647.4030     588.7742   1426.11877     647.4030     588.7742
   1426.10352     649.8987     589.8500   1426.10352     649.8987     589.8500
   1426.08826     653.9048     591.0364   1426.08826     653.9048     591.0364
   1426.07300     656.7098     592.6564   1426.07300     656.7098     592.6564
   1426.05774     658.7991     593.4110   1426.05774     658.7991     593.4110
   1426.04248     661.0956     594.6089   1426.04248     661.0956     594.6089
   1426.02722     662.7527     595.3405   1426.02722     662.7527     595.3405
   1426.01196     665.4094     596.9359   1426.01196     665.4094     596.9359
   1425.99670     668.4010     597.9907   1425.99670     668.4010     597.9907
   1425.98145     671.9638     598.5934   1425.98145     671.9638     598.5934
   1425.96619     672.9295     599.6649   1425.96619     672.9295     599.6649
   1425.95093     676.4357     601.4428   1425.95093     676.4357     601.4428
   1425.93567     679.0225     603.2414   1425.93567     679.0225     603.2414
   1425.92041     681.3788     603.8058   1425.92041     681.3788     603.8058
   1425.90515     683.7627     604.8152   1425.90515     683.7627     604.8152
   1425.88989     686.0421     606.7197   1425.88989     686.0421     606.7197
   1425.87463     688.4922     606.7623   1425.87463     688.4922     606.7623
   1425.85938     690.2761     607.3563   1425.85938     690.2761     607.3563
   1425.84412     691.9544     608.4882   1425.84412     691.9544     608.4882
   1425.82886     694.4404     609.0546   1425.82886     694.4404     609.0546
   1425.81360     696.2224     609.0806   1425.81360     696.2224     609.0806
   1425.79834     699.4983     611.2936   1425.79834     699.4983     611.2936
   1425.78308     701.1902     611.8567   1425.78308     701.1902     611.8567
   1425.76782     702.7640     612.8215   1425.76782     702.7640     612.8215
   1425.75256     704.7809     613.5726   1425.75256     704.7809     613.5726
   1425.73730     707.6941     614.7539   1425.73730     707.6941     614.7539
   1425.72205     709.6500     614.5441   1425.72205     709.6500     614.5441
   1425.70679     710.7042     615.4770   1425.70679     710.7042     615.4770
   1425.69153     713.5368     615.8336   1425.69153     713.5368     615.8336
   1425.67627     715.9164     615.6182   1425.67627     715.9164     615.6182
   1425.66101     717.3773     616.6035   1425.66101     717.3773     616.6035
   1425.64575     718.0527     617.5724   1425.64575     718.0527     617.5724
   1425.63049     720.5602     618.5944   1425.63049     720.5602     618.5944
   1425.61523     722.0636     619.4405   1425.61523     722.0636     619.4405
   1425.59998     723.2034     619.5088   1425.59998     723.2034     619.5088
   1425.58472     725.5851     620.2362   1425.58472     725.5851     620.2362
   1425.56946     728.4852     620.8605   1425.56946     728.4852     620.8605
   1425.55420     728.8123     620.8542   1425.55420     728.8123     620.8542
   1425.53894     730.3486     621.0764   1425.53894     730.3486     621.0764
   1425.52368     731.3736     622.9567   1425.52368     731.3736     622.9567
   1425.50842     733.4134     623.1889   1425.50842     733.4134     623.1889
   1425.49316     735.3515     623.1236   1425.49316     735.3515     623.1236
   1425.47791     737.2725     624.3975   1425.47791     737.2725     624.3975
   1425.46265     736.0407     623.2054   1425.46265     736.0407     623.2054
   1425.44739     739.7090     624.0710   1425.44739     739.7090     624.0710
   1425.43213     740.2783     624.1542   1425.43213     740.2783     624.1542
   1425.41687     741.9177     626.1013   1425.41687     741.9177     626.1013
   1425.40161     742.4386     625.3884   1425.40161     742.4386     625.3884
   1425.38635     743.6882     626.4976   1425.38635     743.6882     626.4976
   1425.37109     745.5298     626.6697   1425.37109     745.5298     626.6697
   1425.35583     746.7692     625.5242   1425.35583     746.7692     625.5242
   1425.34058     747.6667     626.3169   1425.34058     747.6667     626.3169
   1425.32532     749.0096     627.2629   1425.32532     749.0096     627.2629
   1425.31006     749.4269     627.3515   1425.31006     749.4269     627.3515
   1425.29480     750.0505     626.9501   1425.29480     750.0505     626.9501
   1425.27954     752.4616     626.8026   1425.27954     752.4616     626.8026
   1425.26428     753.6193     627.0427   1425.26428     753.6193     627.0427
   1425.24902     755.6693     626.8835   1425.24902     755.6693     626.8835
   1425.23376     756.0585     628.1501   1425.23376     756.0585     628.1501
   1425.21851     756.0900     628.1075   1425.21851     756.0900     628.1075
   1425.20325     756.6533     627.3500   1425.20325     756.6533     627.3500
   1425.18799     757.1811     627.5255   1425.18799     757.1811     627.5255
   1425.17273     757.1086     627.7889   1425.17273     757.1086     627.7889
   1425.15747     759.0070     628.4638   1425.15747     759.0070     628.4638
   1425.14221     760.0967     628.1965   1425.14221     760.0967     628.1965
   1425.12695     760.8104     629.4212   1425.12695     760.8104     629.4212
   1425.11169     761.9563     627.7322   1425.11169     761.9563     627.7322
   1425.09644     762.8622     628.2629   1425.09644     762.8622     628.2629
   1425.08118     761.6334     628.4235   1425.08118     761.6334     628.4235
   1425.06592     763.5730     628.3452   1425.06592     763.5730     628.3452
   1425.05066     763.3181     629.0485   1425.05066     763.3181     629.0485
   1425.03540     765.7247     628.3104   1425.03540     765.7247     628.3104
   1425.02014     765.9183     628.1727   1425.02014     765.9183     628.1727
   1425.00488     766.2648     628.3971   1425.00488     766.2648     628.3971
   1424.98962     765.6609     627.8086   1424.98962     765.6609     627.8086
   1424.97437     767.3005     628.8481   1424.97437     767.3005     628.8481
   1424.95911     766.8005     628.2183   1424.95911     766.8005     628.2183
   1424.94385     767.9089     627.6701   1424.94385     767.9089     627.6701
   1424.92859     767.8481     627.5152   1424.92859     767.8481     627.5152
   1424.91333     768.7173     627.0993   1424.91333     768.7173     627.0993
   1424.89807     768.9358     627.5202   1424.89807     768.9358     627.5202
   1424.88281     769.1611     627.2324   1424.88281     769.1611     627.2324
   1424.86755     768.6985     627.2993   1424.86755     768.6985     627.2993
   1424.85229     769.5243     626.3461   1424.85229     769.5243     626.3461
   1424.83704     770.1738     627.8599   1424.83704     770.1738     627.8599
   1424.82178     771.7161     626.9147   1424.82178     771.7161     626.9147
   1424.80652     771.2829     625.7366   1424.80652     771.2829     625.7366
   1424.79126     771.5732     626.0481   1424.79126     771.5732     626.0481
   1424.77600     771.0306     626.3427   1424.77600     771.0306     626.3427
   1424.76074     771.7337     625.6436   1424.76074     771.7337     625.6436
   1424.74548     769.9675     625.0393   1424.74548     769.9675     625.0393
   1424.73022     771.7189     624.4166   1424.73022     771.7189     624.4166
   1424.71497     771.3502     623.9615   1424.71497     771.3502     623.9615
   1424.69971     772.3239     624.1531   1424.69971     772.3239     624.1531
   1424.68445     770.5760     624.0254   1424.68445     770.5760     624.0254
   1424.66919     771.4720     624.5735   1424.66919     771.4720     624.5735
   1424.65393     770.7647     623.5207   1424.65393     770.7647     623.5207
   1424.63867     772.2764     623.7048   1424.63867     772.2764     623.7048
   1424.62341     770.7382     623.2635   1424.62341     770.7382     623.2635
   1424.60815     771.2975     620.7123   1424.60815     771.2975     620.7123
   1424.59290     771.2113     623.0114   1424.59290     771.2113     623.0114
   1424.57764     769.5087     621.4136   1424.57764     769.5087     621.4136
   1424.56238     770.4805     621.4874   1424.56238     770.4805     621.4874
   1424.54712     770.7671     620.4755   1424.54712     770.7671     620.4755
   1424.53186     770.8141     620.9949   1424.53186     770.8141     620.9949
   1424.51660     770.5786     619.4568   1424.51660     770.5786     619.4568
   1424.50134     771.1520     619.6680   1424.50134     771.1520     619.6680
   1424.48608     769.7322     619.5000   1424.48608     769.7322     619.5000
   1424.47083     770.6455     619.7813   1424.47083     770.6455     619.7813
   1424.45557     769.3323     618.2427   1424.45557     769.3323     618.2427
   1424.44031     768.7352     618.6129   1424.44031     768.7352     618.6129
   1424.42505     769.2952     618.3530   1424.42505     769.2952     618.3530
   1424.40979     769.2014     617.2260   1424.40979     769.2014     617.2260
   1424.39453     769.6884     617.2426   1424.39453     769.6884     617.2426
   1424.37927     769.0909     616.5926   1424.37927     769.0909     616.5926
   1424.36401     768.2230     616.9346   1424.36401     768.2230     616.9346
   1424.34875     767.8754     616.7303   1424.34875     767.8754     616.7303
   1424.33350     768.1348     614.8608   1424.33350     768.1348     614.8608
   1424.31824     767.9814     614.5970   1424.31824     767.9814     614.5970
   1424.30298     766.0381     613.8603   1424.30298     766.0381     613.8603
   1424.28772     766.2793     614.5656   1424.28772     766.2793     614.5656
   1424.27246     765.3851     613.8816   1424.27246     765.3851     613.8816
   1424.25720     765.6992     613.6080   1424.25720     765.6992     613.6080
   1424.24194     766.0180     613.5199   1424.24194     766.0180     613.5199
   1424.22668     765.3161     612.9445   1424.22668     765.3161     612.9445
   1424.21143     766.3949     611.3320   1424.21143     766.3949     611.3320
   1424.19617     764.9099     611.8530   1424.19617     764.9099     611.8530
   1424.18091     764.1921     611.5197   1424.18091     764.1921     611.5197
   1424.16565     764.0089     610.8292   1424.16565     764.0089     610.8292
