#     FILENAME=!Skynet_57528_lach-hhg-135_20445_20959.cyb.fits
#     BASENAME=Skynet_57528_lach-hhg-135_20445_20959
#     SRC_NAME=lach-hhg-135
#     OBSERVER=hhgmadison16_9500
#     DATE_OBS=2016-05-20T17:07:32.560
#        OBSID=20445
#      SCANNUM=20959
#          MJD=57528.7146
#          UTC=61742
#     SCANTYPE=track
#     DATAMODE=HIRES
#     TUNEFREQ=1420.0000
# Actual_FREQ1=1420.0000
# Actual_FREQ2=1420.0000
#    LO1Tuning=6870.000
#     RFFILTER=1355_1435
#        OBSBW=-15.6250
#        NCHAN=1024 
#        FOCUS=37.0709
#           RA=02:31:57.64
#          DEC=60:29:39.57
#      RA(hrs)=2.532700
#     DEC(deg)=60.494300
#    AZIM(deg)=338.729
#    ELEV(deg)=65.195
#     IFattens=11.00, 10.00
#      WARNING=None
#    TCAL_XL1=7.9635
#    TCAL_YR1=9.1340
#    TCAL_XL2=7.9635
#    TCAL_YR2=9.1340
#     TRX_XL1=11.7060
#     TRX_YR1=11.7060
#     TRX_XL2=11.7060
#     TRX_YR2=11.7060
#        TAVE=1.0000
#Freq1(MHz)          XL1          YR1  Freq2(MHz)          XL2          YR2 

   1427.81250     312.2409     252.8860   1427.81250     312.2409     252.8860
   1427.79724     312.6306     254.2739   1427.79724     312.6306     254.2739
   1427.78198     313.5537     254.7539   1427.78198     313.5537     254.7539
   1427.76672     313.2696     255.7240   1427.76672     313.2696     255.7240
   1427.75146     314.3484     256.7274   1427.75146     314.3484     256.7274
   1427.73621     314.7634     257.3024   1427.73621     314.7634     257.3024
   1427.72095     315.9385     258.8701   1427.72095     315.9385     258.8701
   1427.70569     316.3886     259.8125   1427.70569     316.3886     259.8125
   1427.69043     317.6061     261.3032   1427.69043     317.6061     261.3032
   1427.67517     318.5495     262.3604   1427.67517     318.5495     262.3604
   1427.65991     319.6604     263.3692   1427.65991     319.6604     263.3692
   1427.64465     320.0671     264.5774   1427.64465     320.0671     264.5774
   1427.62939     321.6070     265.9295   1427.62939     321.6070     265.9295
   1427.61414     322.1372     267.5556   1427.61414     322.1372     267.5556
   1427.59888     323.0701     268.8035   1427.59888     323.0701     268.8035
   1427.58362     324.6674     269.7179   1427.58362     324.6674     269.7179
   1427.56836     325.7446     271.4189   1427.56836     325.7446     271.4189
   1427.55310     327.6320     272.9162   1427.55310     327.6320     272.9162
   1427.53784     328.3628     274.6708   1427.53784     328.3628     274.6708
   1427.52258     330.1457     275.6695   1427.52258     330.1457     275.6695
   1427.50732     331.3795     277.3882   1427.50732     331.3795     277.3882
   1427.49207     332.6994     278.7351   1427.49207     332.6994     278.7351
   1427.47681     333.8750     280.4065   1427.47681     333.8750     280.4065
   1427.46155     335.4417     282.0431   1427.46155     335.4417     282.0431
   1427.44629     336.3039     284.0978   1427.44629     336.3039     284.0978
   1427.43103     338.8940     285.6927   1427.43103     338.8940     285.6927
   1427.41577     340.3944     287.2523   1427.41577     340.3944     287.2523
   1427.40051     342.1285     288.6104   1427.40051     342.1285     288.6104
   1427.38525     343.4624     290.3494   1427.38525     343.4624     290.3494
   1427.37000     345.2714     292.1656   1427.37000     345.2714     292.1656
   1427.35474     347.0883     294.6262   1427.35474     347.0883     294.6262
   1427.33948     348.3457     295.4513   1427.33948     348.3457     295.4513
   1427.32422     351.2909     297.2327   1427.32422     351.2909     297.2327
   1427.30896     352.9056     299.2881   1427.30896     352.9056     299.2881
   1427.29370     354.4385     301.2277   1427.29370     354.4385     301.2277
   1427.27844     356.6361     303.2780   1427.27844     356.6361     303.2780
   1427.26318     358.5437     305.4365   1427.26318     358.5437     305.4365
   1427.24792     360.2971     306.6404   1427.24792     360.2971     306.6404
   1427.23267     362.8574     308.8394   1427.23267     362.8574     308.8394
   1427.21741     364.5333     310.6176   1427.21741     364.5333     310.6176
   1427.20215     366.8804     312.5137   1427.20215     366.8804     312.5137
   1427.18689     368.9758     314.8702   1427.18689     368.9758     314.8702
   1427.17163     370.5880     316.5242   1427.17163     370.5880     316.5242
   1427.15637     373.2736     318.3743   1427.15637     373.2736     318.3743
   1427.14111     375.6022     320.7105   1427.14111     375.6022     320.7105
   1427.12585     377.7586     322.8426   1427.12585     377.7586     322.8426
   1427.11060     380.1003     324.3923   1427.11060     380.1003     324.3923
   1427.09534     382.4550     326.5158   1427.09534     382.4550     326.5158
   1427.08008     384.1329     328.1951   1427.08008     384.1329     328.1951
   1427.06482     386.7507     330.6439   1427.06482     386.7507     330.6439
   1427.04956     389.2302     332.5970   1427.04956     389.2302     332.5970
   1427.03430     391.0834     334.5388   1427.03430     391.0834     334.5388
   1427.01904     394.6684     337.3018   1427.01904     394.6684     337.3018
   1427.00378     396.4107     338.7543   1427.00378     396.4107     338.7543
   1426.98853     398.4359     341.3100   1426.98853     398.4359     341.3100
   1426.97327     401.7402     343.1273   1426.97327     401.7402     343.1273
   1426.95801     403.4619     345.2064   1426.95801     403.4619     345.2064
   1426.94275     406.3366     346.9045   1426.94275     406.3366     346.9045
   1426.92749     408.3933     349.5844   1426.92749     408.3933     349.5844
   1426.91223     411.6234     351.7414   1426.91223     411.6234     351.7414
   1426.89697     413.4799     354.1081   1426.89697     413.4799     354.1081
   1426.88171     417.3307     355.8445   1426.88171     417.3307     355.8445
   1426.86646     418.6877     358.4229   1426.86646     418.6877     358.4229
   1426.85120     420.8961     360.0764   1426.85120     420.8961     360.0764
   1426.83594     423.6753     362.1627   1426.83594     423.6753     362.1627
   1426.82068     426.7901     363.8923   1426.82068     426.7901     363.8923
   1426.80542     429.2200     366.2571   1426.80542     429.2200     366.2571
   1426.79016     432.3325     368.5115   1426.79016     432.3325     368.5115
   1426.77490     434.5498     370.4961   1426.77490     434.5498     370.4961
   1426.75964     436.8371     371.8047   1426.75964     436.8371     371.8047
   1426.74438     440.0053     374.4432   1426.74438     440.0053     374.4432
   1426.72913     441.8136     376.3465   1426.72913     441.8136     376.3465
   1426.71387     445.7922     378.3778   1426.71387     445.7922     378.3778
   1426.69861     447.1557     380.7559   1426.69861     447.1557     380.7559
   1426.68335     450.7063     382.4431   1426.68335     450.7063     382.4431
   1426.66809     453.5818     384.7354   1426.66809     453.5818     384.7354
   1426.65283     456.6469     386.3960   1426.65283     456.6469     386.3960
   1426.63757     458.5260     388.5496   1426.63757     458.5260     388.5496
   1426.62231     462.2172     392.6299   1426.62231     462.2172     392.6299
   1426.60706     464.1302     393.3946   1426.60706     464.1302     393.3946
   1426.59180     466.3812     394.0931   1426.59180     466.3812     394.0931
   1426.57654     469.4148     397.0107   1426.57654     469.4148     397.0107
   1426.56128     471.8711     399.2462   1426.56128     471.8711     399.2462
   1426.54602     474.2325     400.5887   1426.54602     474.2325     400.5887
   1426.53076     476.3138     402.5195   1426.53076     476.3138     402.5195
   1426.51550     479.6833     404.5007   1426.51550     479.6833     404.5007
   1426.50024     482.9029     406.6162   1426.50024     482.9029     406.6162
   1426.48499     485.5990     408.0951   1426.48499     485.5990     408.0951
   1426.46973     487.5806     410.9305   1426.46973     487.5806     410.9305
   1426.45447     490.0588     412.4240   1426.45447     490.0588     412.4240
   1426.43921     493.1048     413.8208   1426.43921     493.1048     413.8208
   1426.42395     494.8163     414.8646   1426.42395     494.8163     414.8646
   1426.40869     498.1298     417.8187   1426.40869     498.1298     417.8187
   1426.39343     500.4609     419.8630   1426.39343     500.4609     419.8630
   1426.37817     503.6756     421.7630   1426.37817     503.6756     421.7630
   1426.36292     505.7191     422.7468   1426.36292     505.7191     422.7468
   1426.34766     508.7116     424.9440   1426.34766     508.7116     424.9440
   1426.33240     510.5429     426.6135   1426.33240     510.5429     426.6135
   1426.31714     512.5983     428.4750   1426.31714     512.5983     428.4750
   1426.30188     515.6782     430.5559   1426.30188     515.6782     430.5559
   1426.28662     518.7171     432.0858   1426.28662     518.7171     432.0858
   1426.27136     521.2219     433.8970   1426.27136     521.2219     433.8970
   1426.25610     524.0248     435.3671   1426.25610     524.0248     435.3671
   1426.24084     525.3495     436.6781   1426.24084     525.3495     436.6781
   1426.22559     529.2963     438.8041   1426.22559     529.2963     438.8041
   1426.21033     530.9810     439.7735   1426.21033     530.9810     439.7735
   1426.19507     533.1211     441.1859   1426.19507     533.1211     441.1859
   1426.17981     534.8689     443.4353   1426.17981     534.8689     443.4353
   1426.16455     537.2092     444.7492   1426.16455     537.2092     444.7492
   1426.14929     539.8664     446.4488   1426.14929     539.8664     446.4488
   1426.13403     541.8212     448.6462   1426.13403     541.8212     448.6462
   1426.11877     544.5264     450.1291   1426.11877     544.5264     450.1291
   1426.10352     548.0509     450.7684   1426.10352     548.0509     450.7684
   1426.08826     548.2278     452.8342   1426.08826     548.2278     452.8342
   1426.07300     551.0916     453.5157   1426.07300     551.0916     453.5157
   1426.05774     554.4905     455.6914   1426.05774     554.4905     455.6914
   1426.04248     555.4769     457.0421   1426.04248     555.4769     457.0421
   1426.02722     557.4294     457.7335   1426.02722     557.4294     457.7335
   1426.01196     560.3708     459.8335   1426.01196     560.3708     459.8335
   1425.99670     562.6636     460.7881   1425.99670     562.6636     460.7881
   1425.98145     563.8008     462.5381   1425.98145     563.8008     462.5381
   1425.96619     566.1296     463.7171   1425.96619     566.1296     463.7171
   1425.95093     568.3797     464.6328   1425.95093     568.3797     464.6328
   1425.93567     571.4955     466.7727   1425.93567     571.4955     466.7727
   1425.92041     572.6819     467.8780   1425.92041     572.6819     467.8780
   1425.90515     573.8917     469.1706   1425.90515     573.8917     469.1706
   1425.88989     574.6288     470.0450   1425.88989     574.6288     470.0450
   1425.87463     578.5563     471.5634   1425.87463     578.5563     471.5634
   1425.85938     579.7960     472.5148   1425.85938     579.7960     472.5148
   1425.84412     581.4041     474.2581   1425.84412     581.4041     474.2581
   1425.82886     583.2072     474.3393   1425.82886     583.2072     474.3393
   1425.81360     585.2168     476.5936   1425.81360     585.2168     476.5936
   1425.79834     588.6329     477.8024   1425.79834     588.6329     477.8024
   1425.78308     589.8333     478.1044   1425.78308     589.8333     478.1044
   1425.76782     591.5019     479.9715   1425.76782     591.5019     479.9715
   1425.75256     592.7865     480.5607   1425.75256     592.7865     480.5607
   1425.73730     594.1500     482.0335   1425.73730     594.1500     482.0335
   1425.72205     595.4222     483.0297   1425.72205     595.4222     483.0297
   1425.70679     597.6517     484.5299   1425.70679     597.6517     484.5299
   1425.69153     598.4288     486.1860   1425.69153     598.4288     486.1860
   1425.67627     599.1589     486.0905   1425.67627     599.1589     486.0905
   1425.66101     601.3943     487.1474   1425.66101     601.3943     487.1474
   1425.64575     604.3476     487.9719   1425.64575     604.3476     487.9719
   1425.63049     605.4913     488.8455   1425.63049     605.4913     488.8455
   1425.61523     606.6689     490.3008   1425.61523     606.6689     490.3008
   1425.59998     608.3288     491.0761   1425.59998     608.3288     491.0761
   1425.58472     609.0823     492.1017   1425.58472     609.0823     492.1017
   1425.56946     610.8175     492.6530   1425.56946     610.8175     492.6530
   1425.55420     612.3047     493.6220   1425.55420     612.3047     493.6220
   1425.53894     613.6789     494.2581   1425.53894     613.6789     494.2581
   1425.52368     613.8601     494.8065   1425.52368     613.8601     494.8065
   1425.50842     616.0002     496.8241   1425.50842     616.0002     496.8241
   1425.49316     616.8900     497.5283   1425.49316     616.8900     497.5283
   1425.47791     618.6991     498.3010   1425.47791     618.6991     498.3010
   1425.46265     619.2532     499.4310   1425.46265     619.2532     499.4310
   1425.44739     620.7910     498.9772   1425.44739     620.7910     498.9772
   1425.43213     621.5890     501.9883   1425.43213     621.5890     501.9883
   1425.41687     622.8690     501.4885   1425.41687     622.8690     501.4885
   1425.40161     623.8026     501.8427   1425.40161     623.8026     501.8427
   1425.38635     625.9467     503.0440   1425.38635     625.9467     503.0440
   1425.37109     625.2773     503.2986   1425.37109     625.2773     503.2986
   1425.35583     627.0706     505.1664   1425.35583     627.0706     505.1664
   1425.34058     627.6797     504.6572   1425.34058     627.6797     504.6572
   1425.32532     629.6152     505.7389   1425.32532     629.6152     505.7389
   1425.31006     629.3596     506.9821   1425.31006     629.3596     506.9821
   1425.29480     629.8862     507.2309   1425.29480     629.8862     507.2309
   1425.27954     632.0532     507.9462   1425.27954     632.0532     507.9462
   1425.26428     632.3392     508.2972   1425.26428     632.3392     508.2972
   1425.24902     633.6915     508.9315   1425.24902     633.6915     508.9315
   1425.23376     634.3522     509.4960   1425.23376     634.3522     509.4960
   1425.21851     634.8191     510.1420   1425.21851     634.8191     510.1420
   1425.20325     635.9036     511.4364   1425.20325     635.9036     511.4364
   1425.18799     635.7074     511.2817   1425.18799     635.7074     511.2817
   1425.17273     636.8549     512.3856   1425.17273     636.8549     512.3856
   1425.15747     637.7159     513.0912   1425.15747     637.7159     513.0912
   1425.14221     638.4504     513.3297   1425.14221     638.4504     513.3297
   1425.12695     639.7540     514.4821   1425.12695     639.7540     514.4821
   1425.11169     639.6813     514.3858   1425.11169     639.6813     514.3858
   1425.09644     639.7890     515.3876   1425.09644     639.7890     515.3876
   1425.08118     640.0836     515.6194   1425.08118     640.0836     515.6194
   1425.06592     639.4311     515.3333   1425.06592     639.4311     515.3333
   1425.05066     640.8820     517.0436   1425.05066     640.8820     517.0436
   1425.03540     642.1658     517.3121   1425.03540     642.1658     517.3121
   1425.02014     642.4885     517.7142   1425.02014     642.4885     517.7142
   1425.00488     642.9791     518.8817   1425.00488     642.9791     518.8817
   1424.98962     644.9207     518.5782   1424.98962     644.9207     518.5782
   1424.97437     643.4147     519.4495   1424.97437     643.4147     519.4495
   1424.95911     643.9482     519.5993   1424.95911     643.9482     519.5993
   1424.94385     644.1508     519.9243   1424.94385     644.1508     519.9243
   1424.92859     644.4975     520.5573   1424.92859     644.4975     520.5573
   1424.91333     645.5702     521.0115   1424.91333     645.5702     521.0115
   1424.89807     645.4960     521.4153   1424.89807     645.4960     521.4153
   1424.88281     644.7569     520.9771   1424.88281     644.7569     520.9771
   1424.86755     646.5626     522.1693   1424.86755     646.5626     522.1693
   1424.85229     645.7554     521.7659   1424.85229     645.7554     521.7659
   1424.83704     645.2645     522.3878   1424.83704     645.2645     522.3878
   1424.82178     646.5836     522.9231   1424.82178     646.5836     522.9231
   1424.80652     646.0297     522.3441   1424.80652     646.0297     522.3441
   1424.79126     645.7441     523.5552   1424.79126     645.7441     523.5552
   1424.77600     645.5200     523.2817   1424.77600     645.5200     523.2817
   1424.76074     647.1810     524.5074   1424.76074     647.1810     524.5074
   1424.74548     647.4836     524.1887   1424.74548     647.4836     524.1887
   1424.73022     646.6760     524.2645   1424.73022     646.6760     524.2645
   1424.71497     647.3392     525.4936   1424.71497     647.3392     525.4936
   1424.69971     646.6662     525.0660   1424.69971     646.6662     525.0660
   1424.68445     646.6158     525.1594   1424.68445     646.6158     525.1594
   1424.66919     647.1476     525.6262   1424.66919     647.1476     525.6262
   1424.65393     646.8951     525.5085   1424.65393     646.8951     525.5085
   1424.63867     646.4532     526.7287   1424.63867     646.4532     526.7287
   1424.62341     646.6450     526.7771   1424.62341     646.6450     526.7771
   1424.60815     646.6004     526.7984   1424.60815     646.6004     526.7984
   1424.59290     646.2470     526.9371   1424.59290     646.2470     526.9371
   1424.57764     645.8152     527.3141   1424.57764     645.8152     527.3141
   1424.56238     645.6384     527.5216   1424.56238     645.6384     527.5216
   1424.54712     645.6151     527.6182   1424.54712     645.6151     527.6182
   1424.53186     645.8748     527.5984   1424.53186     645.8748     527.5984
   1424.51660     646.3975     527.9305   1424.51660     646.3975     527.9305
   1424.50134     646.2915     527.9225   1424.50134     646.2915     527.9225
   1424.48608     644.6306     528.1867   1424.48608     644.6306     528.1867
   1424.47083     645.8727     528.1518   1424.47083     645.8727     528.1518
   1424.45557     644.7778     528.0466   1424.45557     644.7778     528.0466
   1424.44031     644.9257     529.4313   1424.44031     644.9257     529.4313
   1424.42505     644.8008     529.2399   1424.42505     644.8008     529.2399
   1424.40979     644.2737     530.0864   1424.40979     644.2737     530.0864
   1424.39453     644.2181     530.0241   1424.39453     644.2181     530.0241
   1424.37927     643.2242     529.3400   1424.37927     643.2242     529.3400
   1424.36401     644.1016     529.9620   1424.36401     644.1016     529.9620
   1424.34875     643.6260     529.3815   1424.34875     643.6260     529.3815
   1424.33350     642.9582     529.8511   1424.33350     642.9582     529.8511
   1424.31824     642.9706     530.5794   1424.31824     642.9706     530.5794
   1424.30298     642.7656     529.6085   1424.30298     642.7656     529.6085
   1424.28772     643.4419     530.5985   1424.28772     643.4419     530.5985
   1424.27246     641.8976     530.2139   1424.27246     641.8976     530.2139
   1424.25720     641.9367     531.5161   1424.25720     641.9367     531.5161
   1424.24194     641.2113     530.4617   1424.24194     641.2113     530.4617
   1424.22668     641.0739     530.5858   1424.22668     641.0739     530.5858
   1424.21143     640.5695     530.2821   1424.21143     640.5695     530.2821
   1424.19617     641.1736     530.8649   1424.19617     641.1736     530.8649
   1424.18091     639.9630     530.7028   1424.18091     639.9630     530.7028
   1424.16565     639.5771     530.9015   1424.16565     639.5771     530.9015
