#     FILENAME=!Skynet_57528_lach-hhg-120_20401_20944.cyb.fits
#     BASENAME=Skynet_57528_lach-hhg-120_20401_20944
#     SRC_NAME=lach-hhg-120
#     OBSERVER=hhgmadison16_9500
#     DATE_OBS=2016-05-20T16:37:39.250
#        OBSID=20401
#      SCANNUM=20944
#          MJD=57528.6939
#          UTC=59948
#     SCANTYPE=track
#     DATAMODE=HIRES
#     TUNEFREQ=1420.0000
# Actual_FREQ1=1420.0000
# Actual_FREQ2=1420.0000
#    LO1Tuning=6870.000
#     RFFILTER=1355_1435
#        OBSBW=-15.6250
#        NCHAN=1024 
#        FOCUS=37.0709
#           RA=00:25:47.85
#          DEC=62:43:33.35
#      RA(hrs)=0.430400
#     DEC(deg)=62.725900
#    AZIM(deg)=327.391
#    ELEV(deg)=55.004
#     IFattens=10.00, 10.00
#      WARNING=None
#    TCAL_XL1=7.9635
#    TCAL_YR1=9.1340
#    TCAL_XL2=7.9635
#    TCAL_YR2=9.1340
#     TRX_XL1=11.7060
#     TRX_YR1=11.7060
#     TRX_XL2=11.7060
#     TRX_YR2=11.7060
#        TAVE=1.0000
#Freq1(MHz)          XL1          YR1  Freq2(MHz)          XL2          YR2 

   1427.81250     295.7718     277.4468   1427.81250     295.7718     277.4468
   1427.79724     296.2810     277.5203   1427.79724     296.2810     277.5203
   1427.78198     296.9238     278.6582   1427.78198     296.9238     278.6582
   1427.76672     297.4963     279.6343   1427.76672     297.4963     279.6343
   1427.75146     297.9969     280.5342   1427.75146     297.9969     280.5342
   1427.73621     298.8772     281.5882   1427.73621     298.8772     281.5882
   1427.72095     299.5992     282.5303   1427.72095     299.5992     282.5303
   1427.70569     300.5834     283.4662   1427.70569     300.5834     283.4662
   1427.69043     301.2041     284.5769   1427.69043     301.2041     284.5769
   1427.67517     301.5237     285.5093   1427.67517     301.5237     285.5093
   1427.65991     303.5495     286.8596   1427.65991     303.5495     286.8596
   1427.64465     303.6411     288.4846   1427.64465     303.6411     288.4846
   1427.62939     304.9885     288.9835   1427.62939     304.9885     288.9835
   1427.61414     305.4859     290.2292   1427.61414     305.4859     290.2292
   1427.59888     307.0952     291.6743   1427.59888     307.0952     291.6743
   1427.58362     308.1484     293.1359   1427.58362     308.1484     293.1359
   1427.56836     308.8675     293.9777   1427.56836     308.8675     293.9777
   1427.55310     310.8358     295.3225   1427.55310     310.8358     295.3225
   1427.53784     311.7222     297.2269   1427.53784     311.7222     297.2269
   1427.52258     312.9002     298.4057   1427.52258     312.9002     298.4057
   1427.50732     314.5875     299.9525   1427.50732     314.5875     299.9525
   1427.49207     315.7217     301.5435   1427.49207     315.7217     301.5435
   1427.47681     316.8315     303.3823   1427.47681     316.8315     303.3823
   1427.46155     318.4301     304.8744   1427.46155     318.4301     304.8744
   1427.44629     319.7032     305.9016   1427.44629     319.7032     305.9016
   1427.43103     321.7495     307.9565   1427.43103     321.7495     307.9565
   1427.41577     322.4875     309.6778   1427.41577     322.4875     309.6778
   1427.40051     323.9961     311.3572   1427.40051     323.9961     311.3572
   1427.38525     325.8000     313.1380   1427.38525     325.8000     313.1380
   1427.37000     327.0909     315.1537   1427.37000     327.0909     315.1537
   1427.35474     329.4891     316.9944   1427.35474     329.4891     316.9944
   1427.33948     330.8563     318.5591   1427.33948     330.8563     318.5591
   1427.32422     332.5961     320.5416   1427.32422     332.5961     320.5416
   1427.30896     334.9088     322.3659   1427.30896     334.9088     322.3659
   1427.29370     336.3217     324.1827   1427.29370     336.3217     324.1827
   1427.27844     338.2555     326.5189   1427.27844     338.2555     326.5189
   1427.26318     340.4647     328.7538   1427.26318     340.4647     328.7538
   1427.24792     342.0271     330.3008   1427.24792     342.0271     330.3008
   1427.23267     344.0077     332.4375   1427.23267     344.0077     332.4375
   1427.21741     346.3435     334.0075   1427.21741     346.3435     334.0075
   1427.20215     347.9555     336.5948   1427.20215     347.9555     336.5948
   1427.18689     349.5973     338.6886   1427.18689     349.5973     338.6886
   1427.17163     351.5429     340.5970   1427.17163     351.5429     340.5970
   1427.15637     354.5037     343.1398   1427.15637     354.5037     343.1398
   1427.14111     355.9287     344.9106   1427.14111     355.9287     344.9106
   1427.12585     358.0257     347.6760   1427.12585     358.0257     347.6760
   1427.11060     360.0106     349.2546   1427.11060     360.0106     349.2546
   1427.09534     363.0228     352.0045   1427.09534     363.0228     352.0045
   1427.08008     365.0193     354.0115   1427.08008     365.0193     354.0115
   1427.06482     366.8415     356.0896   1427.06482     366.8415     356.0896
   1427.04956     368.7407     358.6263   1427.04956     368.7407     358.6263
   1427.03430     371.8234     361.0944   1427.03430     371.8234     361.0944
   1427.01904     373.6694     362.8389   1427.01904     373.6694     362.8389
   1427.00378     375.0980     366.3015   1427.00378     375.0980     366.3015
   1426.98853     377.4323     367.5997   1426.98853     377.4323     367.5997
   1426.97327     380.4828     370.5807   1426.97327     380.4828     370.5807
   1426.95801     382.5414     372.7330   1426.95801     382.5414     372.7330
   1426.94275     385.5256     375.9891   1426.94275     385.5256     375.9891
   1426.92749     387.4618     378.0172   1426.92749     387.4618     378.0172
   1426.91223     389.3904     380.0267   1426.91223     389.3904     380.0267
   1426.89697     391.9600     382.7510   1426.89697     391.9600     382.7510
   1426.88171     394.4677     384.9565   1426.88171     394.4677     384.9565
   1426.86646     396.9505     387.9509   1426.86646     396.9505     387.9509
   1426.85120     399.5633     389.8853   1426.85120     399.5633     389.8853
   1426.83594     402.0800     392.7673   1426.83594     402.0800     392.7673
   1426.82068     403.5630     394.8241   1426.82068     403.5630     394.8241
   1426.80542     405.3562     398.0934   1426.80542     405.3562     398.0934
   1426.79016     408.8393     400.7132   1426.79016     408.8393     400.7132
   1426.77490     411.0014     402.5135   1426.77490     411.0014     402.5135
   1426.75964     413.8470     404.1990   1426.75964     413.8470     404.1990
   1426.74438     415.6796     407.2322   1426.74438     415.6796     407.2322
   1426.72913     418.4170     409.5639   1426.72913     418.4170     409.5639
   1426.71387     421.2829     412.4013   1426.71387     421.2829     412.4013
   1426.69861     424.0767     415.2401   1426.69861     424.0767     415.2401
   1426.68335     426.3081     418.2155   1426.68335     426.3081     418.2155
   1426.66809     428.2630     419.7940   1426.66809     428.2630     419.7940
   1426.65283     431.7353     423.5690   1426.65283     431.7353     423.5690
   1426.63757     434.3874     426.1508   1426.63757     434.3874     426.1508
   1426.62231     450.6772     442.2418   1426.62231     450.6772     442.2418
   1426.60706     443.6756     435.3319   1426.60706     443.6756     435.3319
   1426.59180     441.2824     433.4081   1426.59180     441.2824     433.4081
   1426.57654     444.4296     435.0375   1426.57654     444.4296     435.0375
   1426.56128     446.1132     437.7982   1426.56128     446.1132     437.7982
   1426.54602     448.0205     440.5074   1426.54602     448.0205     440.5074
   1426.53076     450.3381     442.8227   1426.53076     450.3381     442.8227
   1426.51550     453.6462     445.0468   1426.51550     453.6462     445.0468
   1426.50024     455.6604     447.8313   1426.50024     455.6604     447.8313
   1426.48499     458.0102     450.5686   1426.48499     458.0102     450.5686
   1426.46973     459.9420     452.7206   1426.46973     459.9420     452.7206
   1426.45447     462.3103     455.5811   1426.45447     462.3103     455.5811
   1426.43921     464.8439     457.4531   1426.43921     464.8439     457.4531
   1426.42395     467.1873     459.4160   1426.42395     467.1873     459.4160
   1426.40869     470.4107     461.7669   1426.40869     470.4107     461.7669
   1426.39343     472.3823     465.0975   1426.39343     472.3823     465.0975
   1426.37817     473.9275     467.7379   1426.37817     473.9275     467.7379
   1426.36292     476.6959     469.5393   1426.36292     476.6959     469.5393
   1426.34766     478.5922     472.2788   1426.34766     478.5922     472.2788
   1426.33240     480.8248     473.9586   1426.33240     480.8248     473.9586
   1426.31714     483.2717     476.5544   1426.31714     483.2717     476.5544
   1426.30188     485.9323     478.5976   1426.30188     485.9323     478.5976
   1426.28662     487.5483     481.6348   1426.28662     487.5483     481.6348
   1426.27136     490.4231     483.5064   1426.27136     490.4231     483.5064
   1426.25610     492.8746     486.0081   1426.25610     492.8746     486.0081
   1426.24084     494.4668     488.3815   1426.24084     494.4668     488.3815
   1426.22559     496.2223     490.5027   1426.22559     496.2223     490.5027
   1426.21033     499.3161     492.9521   1426.21033     499.3161     492.9521
   1426.19507     501.6176     495.5759   1426.19507     501.6176     495.5759
   1426.17981     503.7906     496.9715   1426.17981     503.7906     496.9715
   1426.16455     506.2824     499.4752   1426.16455     506.2824     499.4752
   1426.14929     507.5805     501.7468   1426.14929     507.5805     501.7468
   1426.13403     508.9216     504.1777   1426.13403     508.9216     504.1777
   1426.11877     512.2999     506.0964   1426.11877     512.2999     506.0964
   1426.10352     513.8558     507.6723   1426.10352     513.8558     507.6723
   1426.08826     516.0812     510.9179   1426.08826     516.0812     510.9179
   1426.07300     517.8510     511.9397   1426.07300     517.8510     511.9397
   1426.05774     520.6870     514.1966   1426.05774     520.6870     514.1966
   1426.04248     521.2390     516.1960   1426.04248     521.2390     516.1960
   1426.02722     523.4881     519.2776   1426.02722     523.4881     519.2776
   1426.01196     524.9727     520.7332   1426.01196     524.9727     520.7332
   1425.99670     527.3343     523.7549   1425.99670     527.3343     523.7549
   1425.98145     528.8495     524.4796   1425.98145     528.8495     524.4796
   1425.96619     531.1960     526.2567   1425.96619     531.1960     526.2567
   1425.95093     533.0194     528.3179   1425.95093     533.0194     528.3179
   1425.93567     534.9987     531.1789   1425.93567     534.9987     531.1789
   1425.92041     536.2354     532.5300   1425.92041     536.2354     532.5300
   1425.90515     537.8499     534.4252   1425.90515     537.8499     534.4252
   1425.88989     539.4970     536.0476   1425.88989     539.4970     536.0476
   1425.87463     542.0880     538.4013   1425.87463     542.0880     538.4013
   1425.85938     543.7578     540.3445   1425.85938     543.7578     540.3445
   1425.84412     545.2192     542.4601   1425.84412     545.2192     542.4601
   1425.82886     546.4457     544.4067   1425.82886     546.4457     544.4067
   1425.81360     548.2502     544.7913   1425.81360     548.2502     544.7913
   1425.79834     549.6770     548.1721   1425.79834     549.6770     548.1721
   1425.78308     551.7122     548.4460   1425.78308     551.7122     548.4460
   1425.76782     552.6996     550.6811   1425.76782     552.6996     550.6811
   1425.75256     554.0965     552.9012   1425.75256     554.0965     552.9012
   1425.73730     556.2767     554.1557   1425.73730     556.2767     554.1557
   1425.72205     556.7107     556.3148   1425.72205     556.7107     556.3148
   1425.70679     557.8112     556.9339   1425.70679     557.8112     556.9339
   1425.69153     559.9118     559.4441   1425.69153     559.9118     559.4441
   1425.67627     560.3338     561.1627   1425.67627     560.3338     561.1627
   1425.66101     562.5709     562.3691   1425.66101     562.5709     562.3691
   1425.64575     563.5537     564.1046   1425.64575     563.5537     564.1046
   1425.63049     564.8911     565.6050   1425.63049     564.8911     565.6050
   1425.61523     567.0775     567.6435   1425.61523     567.0775     567.6435
   1425.59998     567.5765     568.8248   1425.59998     567.5765     568.8248
   1425.58472     568.9475     570.8951   1425.58472     568.9475     570.8951
   1425.56946     569.7223     571.6972   1425.56946     569.7223     571.6972
   1425.55420     572.3011     573.8140   1425.55420     572.3011     573.8140
   1425.53894     572.4867     574.3739   1425.53894     572.4867     574.3739
   1425.52368     573.4628     576.9744   1425.52368     573.4628     576.9744
   1425.50842     574.7294     577.9238   1425.50842     574.7294     577.9238
   1425.49316     575.7640     579.4286   1425.49316     575.7640     579.4286
   1425.47791     576.4263     580.4937   1425.47791     576.4263     580.4937
   1425.46265     577.1228     582.0247   1425.46265     577.1228     582.0247
   1425.44739     578.8253     583.5283   1425.44739     578.8253     583.5283
   1425.43213     580.0652     584.7943   1425.43213     580.0652     584.7943
   1425.41687     580.5612     586.5374   1425.41687     580.5612     586.5374
   1425.40161     582.2096     587.7300   1425.40161     582.2096     587.7300
   1425.38635     581.8231     588.7753   1425.38635     581.8231     588.7753
   1425.37109     582.9139     590.2984   1425.37109     582.9139     590.2984
   1425.35583     584.6661     591.1338   1425.35583     584.6661     591.1338
   1425.34058     585.0403     592.9929   1425.34058     585.0403     592.9929
   1425.32532     586.1608     594.8357   1425.32532     586.1608     594.8357
   1425.31006     586.3767     594.9446   1425.31006     586.3767     594.9446
   1425.29480     586.2855     596.4348   1425.29480     586.2855     596.4348
   1425.27954     588.4125     596.8538   1425.27954     588.4125     596.8538
   1425.26428     588.5049     598.4379   1425.26428     588.5049     598.4379
   1425.24902     589.3314     599.1964   1425.24902     589.3314     599.1964
   1425.23376     589.3659     601.1806   1425.23376     589.3659     601.1806
   1425.21851     591.0947     603.3340   1425.21851     591.0947     603.3340
   1425.20325     591.1121     603.0424   1425.20325     591.1121     603.0424
   1425.18799     592.6030     603.6041   1425.18799     592.6030     603.6041
   1425.17273     591.5389     605.5103   1425.17273     591.5389     605.5103
   1425.15747     593.2553     606.4505   1425.15747     593.2553     606.4505
   1425.14221     593.5687     607.4203   1425.14221     593.5687     607.4203
   1425.12695     594.6346     607.9758   1425.12695     594.6346     607.9758
   1425.11169     593.8285     608.5535   1425.11169     593.8285     608.5535
   1425.09644     595.1665     610.4769   1425.09644     595.1665     610.4769
   1425.08118     594.4636     611.0620   1425.08118     594.4636     611.0620
   1425.06592     595.3654     612.5843   1425.06592     595.3654     612.5843
   1425.05066     596.3139     613.9745   1425.05066     596.3139     613.9745
   1425.03540     596.2827     613.1969   1425.03540     596.2827     613.1969
   1425.02014     597.1741     615.1524   1425.02014     597.1741     615.1524
   1425.00488     597.5687     616.4793   1425.00488     597.5687     616.4793
   1424.98962     596.8624     617.1948   1424.98962     596.8624     617.1948
   1424.97437     597.4912     616.8884   1424.97437     597.4912     616.8884
   1424.95911     598.0333     619.5170   1424.95911     598.0333     619.5170
   1424.94385     598.0327     619.3812   1424.94385     598.0327     619.3812
   1424.92859     598.4594     620.5701   1424.92859     598.4594     620.5701
   1424.91333     598.0820     622.2552   1424.91333     598.0820     622.2552
   1424.89807     598.0106     622.7335   1424.89807     598.0106     622.7335
   1424.88281     598.5220     623.5297   1424.88281     598.5220     623.5297
   1424.86755     599.4326     624.2463   1424.86755     599.4326     624.2463
   1424.85229     599.8951     625.4290   1424.85229     599.8951     625.4290
   1424.83704     599.8176     625.0456   1424.83704     599.8176     625.0456
   1424.82178     599.6465     626.0029   1424.82178     599.6465     626.0029
   1424.80652     599.6445     626.1444   1424.80652     599.6445     626.1444
   1424.79126     600.3240     626.5369   1424.79126     600.3240     626.5369
   1424.77600     600.2021     627.7985   1424.77600     600.2021     627.7985
   1424.76074     600.7621     628.4716   1424.76074     600.7621     628.4716
   1424.74548     600.0002     629.4018   1424.74548     600.0002     629.4018
   1424.73022     599.7383     629.9706   1424.73022     599.7383     629.9706
   1424.71497     599.8963     630.6345   1424.71497     599.8963     630.6345
   1424.69971     599.9380     631.1327   1424.69971     599.9380     631.1327
   1424.68445     600.4702     631.4840   1424.68445     600.4702     631.4840
   1424.66919     601.2032     632.1339   1424.66919     601.2032     632.1339
   1424.65393     600.0208     633.2171   1424.65393     600.0208     633.2171
   1424.63867     600.5810     633.6786   1424.63867     600.5810     633.6786
   1424.62341     599.8658     634.4340   1424.62341     599.8658     634.4340
   1424.60815     599.5251     634.4501   1424.60815     599.5251     634.4501
   1424.59290     600.1727     635.2133   1424.59290     600.1727     635.2133
   1424.57764     600.6417     635.3259   1424.57764     600.6417     635.3259
   1424.56238     599.9103     636.4377   1424.56238     599.9103     636.4377
   1424.54712     600.2415     636.6162   1424.54712     600.2415     636.6162
   1424.53186     600.2054     638.1950   1424.53186     600.2054     638.1950
   1424.51660     600.0246     637.7448   1424.51660     600.0246     637.7448
   1424.50134     599.8204     637.8483   1424.50134     599.8204     637.8483
   1424.48608     599.8878     639.1545   1424.48608     599.8878     639.1545
   1424.47083     599.6489     638.7787   1424.47083     599.6489     638.7787
   1424.45557     599.7734     640.3547   1424.45557     599.7734     640.3547
   1424.44031     599.1357     641.2003   1424.44031     599.1357     641.2003
   1424.42505     599.1745     639.4320   1424.42505     599.1745     639.4320
   1424.40979     598.5610     640.8989   1424.40979     598.5610     640.8989
   1424.39453     598.5818     641.1203   1424.39453     598.5818     641.1203
   1424.37927     598.3480     642.0374   1424.37927     598.3480     642.0374
   1424.36401     596.9801     641.3429   1424.36401     596.9801     641.3429
   1424.34875     597.6863     642.2966   1424.34875     597.6863     642.2966
   1424.33350     598.2570     642.5444   1424.33350     598.2570     642.5444
   1424.31824     597.2094     642.7564   1424.31824     597.2094     642.7564
   1424.30298     597.6755     643.6264   1424.30298     597.6755     643.6264
   1424.28772     597.8344     642.9363   1424.28772     597.8344     642.9363
   1424.27246     595.8923     644.0146   1424.27246     595.8923     644.0146
   1424.25720     596.9717     645.0600   1424.25720     596.9717     645.0600
   1424.24194     595.8088     645.6819   1424.24194     595.8088     645.6819
   1424.22668     596.0065     645.1697   1424.22668     596.0065     645.1697
   1424.21143     595.1599     644.4818   1424.21143     595.1599     644.4818
   1424.19617     596.7236     644.8770   1424.19617     596.7236     644.8770
   1424.18091     595.3653     644.7729   1424.18091     595.3653     644.7729
   1424.16565     594.9635     645.4332   1424.16565     594.9635     645.4332
