#     FILENAME=!Skynet_57528_lach-cc-87_20535_20933.cyb.fits
#     BASENAME=Skynet_57528_lach-cc-87_20535_20933
#     SRC_NAME=lach-cc-87
#     OBSERVER=ccmadison16_9505
#     DATE_OBS=2016-05-20T16:15:35.500
#        OBSID=20535
#      SCANNUM=20933
#          MJD=57528.6785
#          UTC=58625
#     SCANTYPE=track
#     DATAMODE=HIRES
#     TUNEFREQ=1420.0000
# Actual_FREQ1=1420.0000
# Actual_FREQ2=1420.0000
#    LO1Tuning=6870.000
#     RFFILTER=1355_1435
#        OBSBW=-15.6250
#        NCHAN=1024 
#        FOCUS=37.0709
#           RA=21:00:06.86
#          DEC=46:06:25.39
#      RA(hrs)=21.001900
#     DEC(deg)=46.107100
#    AZIM(deg)=307.819
#    ELEV(deg)=27.956
#     IFattens=11.00, 10.00
#      WARNING=None
#    TCAL_XL1=7.9635
#    TCAL_YR1=9.1340
#    TCAL_XL2=7.9635
#    TCAL_YR2=9.1340
#     TRX_XL1=11.7060
#     TRX_YR1=11.7060
#     TRX_XL2=11.7060
#     TRX_YR2=11.7060
#        TAVE=1.0000
#Freq1(MHz)          XL1          YR1  Freq2(MHz)          XL2          YR2 

   1427.81250     303.0765     249.1842   1427.81250     303.0765     249.1842
   1427.79724     304.1282     249.5368   1427.79724     304.1282     249.5368
   1427.78198     304.7922     249.8013   1427.78198     304.7922     249.8013
   1427.76672     305.3356     250.5672   1427.76672     305.3356     250.5672
   1427.75146     305.7332     251.1992   1427.75146     305.7332     251.1992
   1427.73621     305.9260     251.7608   1427.73621     305.9260     251.7608
   1427.72095     307.0826     252.6381   1427.72095     307.0826     252.6381
   1427.70569     307.6998     253.3315   1427.70569     307.6998     253.3315
   1427.69043     308.9205     254.3102   1427.69043     308.9205     254.3102
   1427.67517     309.3366     254.3642   1427.67517     309.3366     254.3642
   1427.65991     310.4338     255.7894   1427.65991     310.4338     255.7894
   1427.64465     310.8917     256.4006   1427.64465     310.8917     256.4006
   1427.62939     311.9625     257.1028   1427.62939     311.9625     257.1028
   1427.61414     313.2508     258.4148   1427.61414     313.2508     258.4148
   1427.59888     315.0374     259.2087   1427.59888     315.0374     259.2087
   1427.58362     315.5792     260.4942   1427.58362     315.5792     260.4942
   1427.56836     317.3036     261.4249   1427.56836     317.3036     261.4249
   1427.55310     318.0826     262.2739   1427.55310     318.0826     262.2739
   1427.53784     319.4306     263.3680   1427.53784     319.4306     263.3680
   1427.52258     320.7495     264.8682   1427.52258     320.7495     264.8682
   1427.50732     321.9705     266.1323   1427.50732     321.9705     266.1323
   1427.49207     323.8764     266.9676   1427.49207     323.8764     266.9676
   1427.47681     324.9982     268.7733   1427.47681     324.9982     268.7733
   1427.46155     326.3389     270.0738   1427.46155     326.3389     270.0738
   1427.44629     328.1812     271.4340   1427.44629     328.1812     271.4340
   1427.43103     329.5217     272.4471   1427.43103     329.5217     272.4471
   1427.41577     330.7964     273.9100   1427.41577     330.7964     273.9100
   1427.40051     332.2097     275.3813   1427.40051     332.2097     275.3813
   1427.38525     333.3339     276.9633   1427.38525     333.3339     276.9633
   1427.37000     335.4441     277.6084   1427.37000     335.4441     277.6084
   1427.35474     337.2927     279.6145   1427.35474     337.2927     279.6145
   1427.33948     339.7453     280.8661   1427.33948     339.7453     280.8661
   1427.32422     341.0607     282.5998   1427.32422     341.0607     282.5998
   1427.30896     342.8852     284.2350   1427.30896     342.8852     284.2350
   1427.29370     344.7364     286.0228   1427.29370     344.7364     286.0228
   1427.27844     346.3048     286.8043   1427.27844     346.3048     286.8043
   1427.26318     348.4561     289.5488   1427.26318     348.4561     289.5488
   1427.24792     350.2035     291.1913   1427.24792     350.2035     291.1913
   1427.23267     351.9063     292.6753   1427.23267     351.9063     292.6753
   1427.21741     354.0738     294.9177   1427.21741     354.0738     294.9177
   1427.20215     356.2868     296.5869   1427.20215     356.2868     296.5869
   1427.18689     358.0776     298.1263   1427.18689     358.0776     298.1263
   1427.17163     360.0074     299.3815   1427.17163     360.0074     299.3815
   1427.15637     362.4653     301.7932   1427.15637     362.4653     301.7932
   1427.14111     363.8844     303.5460   1427.14111     363.8844     303.5460
   1427.12585     366.5891     305.1469   1427.12585     366.5891     305.1469
   1427.11060     368.7902     307.2575   1427.11060     368.7902     307.2575
   1427.09534     370.7977     308.6122   1427.09534     370.7977     308.6122
   1427.08008     373.1343     311.4752   1427.08008     373.1343     311.4752
   1427.06482     375.5361     313.0456   1427.06482     375.5361     313.0456
   1427.04956     377.6104     314.9120   1427.04956     377.6104     314.9120
   1427.03430     380.0105     317.1770   1427.03430     380.0105     317.1770
   1427.01904     381.4631     318.7707   1427.01904     381.4631     318.7707
   1427.00378     384.2289     320.9405   1427.00378     384.2289     320.9405
   1426.98853     386.5228     323.1250   1426.98853     386.5228     323.1250
   1426.97327     388.9055     324.9296   1426.97327     388.9055     324.9296
   1426.95801     390.8859     327.1988   1426.95801     390.8859     327.1988
   1426.94275     393.5072     329.6212   1426.94275     393.5072     329.6212
   1426.92749     396.1589     331.4377   1426.92749     396.1589     331.4377
   1426.91223     398.2672     333.1361   1426.91223     398.2672     333.1361
   1426.89697     400.9734     336.1017   1426.89697     400.9734     336.1017
   1426.88171     403.0587     337.8472   1426.88171     403.0587     337.8472
   1426.86646     405.7005     339.8607   1426.86646     405.7005     339.8607
   1426.85120     408.2234     341.9024   1426.85120     408.2234     341.9024
   1426.83594     411.1488     343.8604   1426.83594     411.1488     343.8604
   1426.82068     412.6888     345.9687   1426.82068     412.6888     345.9687
   1426.80542     415.2521     348.1602   1426.80542     415.2521     348.1602
   1426.79016     418.1780     350.4909   1426.79016     418.1780     350.4909
   1426.77490     420.6667     352.2444   1426.77490     420.6667     352.2444
   1426.75964     422.7783     354.8135   1426.75964     422.7783     354.8135
   1426.74438     425.2356     357.2412   1426.74438     425.2356     357.2412
   1426.72913     428.6063     358.1186   1426.72913     428.6063     358.1186
   1426.71387     430.7848     360.4839   1426.71387     430.7848     360.4839
   1426.69861     432.7076     363.2931   1426.69861     432.7076     363.2931
   1426.68335     435.2248     365.3153   1426.68335     435.2248     365.3153
   1426.66809     437.8711     367.3340   1426.66809     437.8711     367.3340
   1426.65283     440.6795     370.2366   1426.65283     440.6795     370.2366
   1426.63757     443.7708     371.8179   1426.63757     443.7708     371.8179
   1426.62231     445.5022     374.7561   1426.62231     445.5022     374.7561
   1426.60706     447.4005     376.5287   1426.60706     447.4005     376.5287
   1426.59180     450.4665     377.9020   1426.59180     450.4665     377.9020
   1426.57654     453.2170     380.6540   1426.57654     453.2170     380.6540
   1426.56128     455.6273     382.8250   1426.56128     455.6273     382.8250
   1426.54602     457.6343     384.8681   1426.54602     457.6343     384.8681
   1426.53076     460.3115     386.6201   1426.53076     460.3115     386.6201
   1426.51550     462.4626     388.6552   1426.51550     462.4626     388.6552
   1426.50024     465.0246     391.0895   1426.50024     465.0246     391.0895
   1426.48499     467.8922     393.4165   1426.48499     467.8922     393.4165
   1426.46973     470.6069     394.8507   1426.46973     470.6069     394.8507
   1426.45447     472.6379     397.5426   1426.45447     472.6379     397.5426
   1426.43921     474.8387     398.9929   1426.43921     474.8387     398.9929
   1426.42395     477.3238     400.6663   1426.42395     477.3238     400.6663
   1426.40869     480.0930     403.0813   1426.40869     480.0930     403.0813
   1426.39343     482.5660     405.2308   1426.39343     482.5660     405.2308
   1426.37817     483.8875     407.2730   1426.37817     483.8875     407.2730
   1426.36292     486.8227     410.1486   1426.36292     486.8227     410.1486
   1426.34766     489.0388     411.3043   1426.34766     489.0388     411.3043
   1426.33240     491.6609     413.2073   1426.33240     491.6609     413.2073
   1426.31714     494.3894     415.3764   1426.31714     494.3894     415.3764
   1426.30188     495.4219     417.6908   1426.30188     495.4219     417.6908
   1426.28662     498.6410     418.8626   1426.28662     498.6410     418.8626
   1426.27136     500.5244     420.7314   1426.27136     500.5244     420.7314
   1426.25610     502.8277     423.5999   1426.25610     502.8277     423.5999
   1426.24084     504.7801     425.0750   1426.24084     504.7801     425.0750
   1426.22559     507.4547     427.2831   1426.22559     507.4547     427.2831
   1426.21033     509.6080     428.9435   1426.21033     509.6080     428.9435
   1426.19507     511.8904     429.9112   1426.19507     511.8904     429.9112
   1426.17981     514.3032     432.7434   1426.17981     514.3032     432.7434
   1426.16455     516.7147     434.6702   1426.16455     516.7147     434.6702
   1426.14929     517.9887     436.5408   1426.14929     517.9887     436.5408
   1426.13403     520.6458     438.7268   1426.13403     520.6458     438.7268
   1426.11877     523.2456     439.8937   1426.11877     523.2456     439.8937
   1426.10352     524.6135     441.8297   1426.10352     524.6135     441.8297
   1426.08826     526.5352     443.4843   1426.08826     526.5352     443.4843
   1426.07300     529.4884     445.2456   1426.07300     529.4884     445.2456
   1426.05774     530.3592     447.8731   1426.05774     530.3592     447.8731
   1426.04248     532.5990     448.8762   1426.04248     532.5990     448.8762
   1426.02722     534.1265     450.3861   1426.02722     534.1265     450.3861
   1426.01196     537.3489     452.5891   1426.01196     537.3489     452.5891
   1425.99670     538.6635     454.1843   1425.99670     538.6635     454.1843
   1425.98145     540.8026     456.1692   1425.98145     540.8026     456.1692
   1425.96619     543.4161     457.7613   1425.96619     543.4161     457.7613
   1425.95093     543.9212     458.8062   1425.95093     543.9212     458.8062
   1425.93567     545.1430     461.0724   1425.93567     545.1430     461.0724
   1425.92041     548.2382     462.0736   1425.92041     548.2382     462.0736
   1425.90515     550.9457     465.2050   1425.90515     550.9457     465.2050
   1425.88989     551.8502     465.9554   1425.88989     551.8502     465.9554
   1425.87463     552.9299     467.4415   1425.87463     552.9299     467.4415
   1425.85938     555.4104     469.5983   1425.85938     555.4104     469.5983
   1425.84412     556.6017     470.5093   1425.84412     556.6017     470.5093
   1425.82886     558.3840     472.1573   1425.82886     558.3840     472.1573
   1425.81360     559.7341     473.8307   1425.81360     559.7341     473.8307
   1425.79834     561.8047     475.8938   1425.79834     561.8047     475.8938
   1425.78308     563.0055     476.4546   1425.78308     563.0055     476.4546
   1425.76782     565.0919     478.6989   1425.76782     565.0919     478.6989
   1425.75256     565.5809     479.2763   1425.75256     565.5809     479.2763
   1425.73730     568.6196     481.6371   1425.73730     568.6196     481.6371
   1425.72205     569.8022     482.8936   1425.72205     569.8022     482.8936
   1425.70679     570.4503     483.5856   1425.70679     570.4503     483.5856
   1425.69153     572.0998     485.2525   1425.69153     572.0998     485.2525
   1425.67627     573.5967     487.1405   1425.67627     573.5967     487.1405
   1425.66101     575.1342     487.7400   1425.66101     575.1342     487.7400
   1425.64575     576.2602     489.4180   1425.64575     576.2602     489.4180
   1425.63049     576.5364     490.5391   1425.63049     576.5364     490.5391
   1425.61523     578.9932     492.0278   1425.61523     578.9932     492.0278
   1425.59998     580.2456     493.4807   1425.59998     580.2456     493.4807
   1425.58472     581.2576     495.4341   1425.58472     581.2576     495.4341
   1425.56946     582.4387     496.4057   1425.56946     582.4387     496.4057
   1425.55420     583.0179     497.3684   1425.55420     583.0179     497.3684
   1425.53894     585.7557     497.8701   1425.53894     585.7557     497.8701
   1425.52368     585.2849     499.5255   1425.52368     585.2849     499.5255
   1425.50842     587.0853     500.9290   1425.50842     587.0853     500.9290
   1425.49316     588.1774     502.7064   1425.49316     588.1774     502.7064
   1425.47791     589.5897     503.8015   1425.47791     589.5897     503.8015
   1425.46265     590.7719     504.0621   1425.46265     590.7719     504.0621
   1425.44739     592.0849     505.9090   1425.44739     592.0849     505.9090
   1425.43213     592.7230     507.7702   1425.43213     592.7230     507.7702
   1425.41687     594.9891     509.4236   1425.41687     594.9891     509.4236
   1425.40161     593.8628     509.1678   1425.40161     593.8628     509.1678
   1425.38635     595.0142     511.1180   1425.38635     595.0142     511.1180
   1425.37109     596.3070     511.6974   1425.37109     596.3070     511.6974
   1425.35583     597.2594     513.0476   1425.35583     597.2594     513.0476
   1425.34058     599.1546     513.7354   1425.34058     599.1546     513.7354
   1425.32532     599.7866     515.2870   1425.32532     599.7866     515.2870
   1425.31006     600.4072     515.4335   1425.31006     600.4072     515.4335
   1425.29480     600.4775     516.7164   1425.29480     600.4775     516.7164
   1425.27954     601.5764     518.6618   1425.27954     601.5764     518.6618
   1425.26428     601.9379     519.1627   1425.26428     601.9379     519.1627
   1425.24902     603.2422     519.9175   1425.24902     603.2422     519.9175
   1425.23376     603.9978     520.9308   1425.23376     603.9978     520.9308
   1425.21851     603.2830     522.4200   1425.21851     603.2830     522.4200
   1425.20325     605.2757     522.6555   1425.20325     605.2757     522.6555
   1425.18799     606.2119     525.0879   1425.18799     606.2119     525.0879
   1425.17273     607.1523     524.8882   1425.17273     607.1523     524.8882
   1425.15747     607.2417     526.3914   1425.15747     607.2417     526.3914
   1425.14221     607.4968     525.9840   1425.14221     607.4968     525.9840
   1425.12695     608.7155     527.5789   1425.12695     608.7155     527.5789
   1425.11169     608.8686     527.8090   1425.11169     608.8686     527.8090
   1425.09644     609.6041     528.7758   1425.09644     609.6041     528.7758
   1425.08118     610.6422     530.1276   1425.08118     610.6422     530.1276
   1425.06592     610.4924     532.2434   1425.06592     610.4924     532.2434
   1425.05066     611.2011     531.9164   1425.05066     611.2011     531.9164
   1425.03540     611.8917     533.5461   1425.03540     611.8917     533.5461
   1425.02014     612.6424     534.0901   1425.02014     612.6424     534.0901
   1425.00488     612.6193     534.9279   1425.00488     612.6193     534.9279
   1424.98962     613.2121     535.8226   1424.98962     613.2121     535.8226
   1424.97437     613.8254     536.6531   1424.97437     613.8254     536.6531
   1424.95911     614.6747     537.7061   1424.95911     614.6747     537.7061
   1424.94385     613.3911     538.0420   1424.94385     613.3911     538.0420
   1424.92859     614.5790     538.9517   1424.92859     614.5790     538.9517
   1424.91333     614.5447     538.8903   1424.91333     614.5447     538.8903
   1424.89807     615.1246     540.6964   1424.89807     615.1246     540.6964
   1424.88281     615.3686     540.7742   1424.88281     615.3686     540.7742
   1424.86755     615.4479     541.4631   1424.86755     615.4479     541.4631
   1424.85229     616.2872     542.0927   1424.85229     616.2872     542.0927
   1424.83704     615.2371     543.3858   1424.83704     615.2371     543.3858
   1424.82178     616.6182     544.7340   1424.82178     616.6182     544.7340
   1424.80652     616.2107     544.1569   1424.80652     616.2107     544.1569
   1424.79126     616.4228     544.2689   1424.79126     616.4228     544.2689
   1424.77600     615.9774     546.3616   1424.77600     615.9774     546.3616
   1424.76074     617.3442     546.5413   1424.76074     617.3442     546.5413
   1424.74548     617.5526     546.9323   1424.74548     617.5526     546.9323
   1424.73022     617.4762     548.1880   1424.73022     617.4762     548.1880
   1424.71497     618.3004     548.4690   1424.71497     618.3004     548.4690
   1424.69971     617.2916     549.4913   1424.69971     617.2916     549.4913
   1424.68445     617.4191     549.3585   1424.68445     617.4191     549.3585
   1424.66919     619.4011     550.9041   1424.66919     619.4011     550.9041
   1424.65393     618.6033     550.8043   1424.65393     618.6033     550.8043
   1424.63867     617.5034     552.4013   1424.63867     617.5034     552.4013
   1424.62341     618.0886     551.7504   1424.62341     618.0886     551.7504
   1424.60815     617.9024     552.9515   1424.60815     617.9024     552.9515
   1424.59290     618.7367     553.9390   1424.59290     618.7367     553.9390
   1424.57764     617.8187     554.0626   1424.57764     617.8187     554.0626
   1424.56238     618.4446     554.7346   1424.56238     618.4446     554.7346
   1424.54712     618.5261     554.5486   1424.54712     618.5261     554.5486
   1424.53186     619.2168     555.8596   1424.53186     619.2168     555.8596
   1424.51660     618.8781     555.8803   1424.51660     618.8781     555.8803
   1424.50134     617.6754     557.6189   1424.50134     617.6754     557.6189
   1424.48608     618.5441     557.5049   1424.48608     618.5441     557.5049
   1424.47083     618.0378     558.0657   1424.47083     618.0378     558.0657
   1424.45557     619.3145     558.1241   1424.45557     619.3145     558.1241
   1424.44031     618.7123     558.6870   1424.44031     618.7123     558.6870
   1424.42505     617.9633     558.7362   1424.42505     617.9633     558.7362
   1424.40979     617.7076     560.4631   1424.40979     617.7076     560.4631
   1424.39453     618.0146     559.9508   1424.39453     618.0146     559.9508
   1424.37927     618.0850     560.3503   1424.37927     618.0850     560.3503
   1424.36401     617.4131     560.4376   1424.36401     617.4131     560.4376
   1424.34875     618.2751     560.8794   1424.34875     618.2751     560.8794
   1424.33350     618.1512     561.7574   1424.33350     618.1512     561.7574
   1424.31824     618.0515     562.4186   1424.31824     618.0515     562.4186
   1424.30298     618.0720     562.7339   1424.30298     618.0720     562.7339
   1424.28772     617.2100     562.6685   1424.28772     617.2100     562.6685
   1424.27246     617.7291     563.0264   1424.27246     617.7291     563.0264
   1424.25720     617.6636     563.5294   1424.25720     617.6636     563.5294
   1424.24194     617.0417     563.7079   1424.24194     617.0417     563.7079
   1424.22668     617.0864     564.1304   1424.22668     617.0864     564.1304
   1424.21143     618.1489     564.4082   1424.21143     618.1489     564.4082
   1424.19617     617.1223     565.1503   1424.19617     617.1223     565.1503
   1424.18091     617.2921     564.6885   1424.18091     617.2921     564.6885
   1424.16565     617.2252     565.7089   1424.16565     617.2252     565.7089
