#     FILENAME=!Skynet_57528_lach-hhg-163_20534_20987.cyb.fits
#     BASENAME=Skynet_57528_lach-hhg-163_20534_20987
#     SRC_NAME=lach-hhg-163
#     OBSERVER=hhgmadison16_9500
#     DATE_OBS=2016-05-20T18:04:15.500
#        OBSID=20534
#      SCANNUM=20987
#          MJD=57528.7540
#          UTC=65144
#     SCANTYPE=track
#     DATAMODE=HIRES
#     TUNEFREQ=1420.0000
# Actual_FREQ1=1420.0000
# Actual_FREQ2=1420.0000
#    LO1Tuning=6870.000
#     RFFILTER=1355_1435
#        OBSBW=-15.6250
#        NCHAN=1024 
#        FOCUS=37.0709
#           RA=04:57:32.90
#          DEC=42:55:44.51
#      RA(hrs)=4.959100
#     DEC(deg)=42.929000
#    AZIM(deg)=36.104
#    ELEV(deg)=84.227
#     IFattens=10.00, 9.00
#      WARNING=None
#    TCAL_XL1=7.9635
#    TCAL_YR1=9.1340
#    TCAL_XL2=7.9635
#    TCAL_YR2=9.1340
#     TRX_XL1=11.7060
#     TRX_YR1=11.7060
#     TRX_XL2=11.7060
#     TRX_YR2=11.7060
#        TAVE=1.0000
#Freq1(MHz)          XL1          YR1  Freq2(MHz)          XL2          YR2 

   1427.81250     375.6271     333.2563   1427.81250     375.6271     333.2563
   1427.79724     376.3806     334.2476   1427.79724     376.3806     334.2476
   1427.78198     377.1406     336.3117   1427.78198     377.1406     336.3117
   1427.76672     377.6780     338.8329   1427.76672     377.6780     338.8329
   1427.75146     378.5796     339.4723   1427.75146     378.5796     339.4723
   1427.73621     379.1422     341.2642   1427.73621     379.1422     341.2642
   1427.72095     380.1079     343.0275   1427.72095     380.1079     343.0275
   1427.70569     380.3228     344.7841   1427.70569     380.3228     344.7841
   1427.69043     382.4846     346.3763   1427.69043     382.4846     346.3763
   1427.67517     382.5035     348.2473   1427.67517     382.5035     348.2473
   1427.65991     384.2484     351.3041   1427.65991     384.2484     351.3041
   1427.64465     384.6057     352.5260   1427.64465     384.6057     352.5260
   1427.62939     386.2549     355.3833   1427.62939     386.2549     355.3833
   1427.61414     387.1335     356.4468   1427.61414     387.1335     356.4468
   1427.59888     389.2623     358.0473   1427.59888     389.2623     358.0473
   1427.58362     390.5522     361.0256   1427.58362     390.5522     361.0256
   1427.56836     392.1514     363.3488   1427.56836     392.1514     363.3488
   1427.55310     393.2019     365.7682   1427.55310     393.2019     365.7682
   1427.53784     395.1776     367.4651   1427.53784     395.1776     367.4651
   1427.52258     396.2958     370.7372   1427.52258     396.2958     370.7372
   1427.50732     397.5387     372.7401   1427.50732     397.5387     372.7401
   1427.49207     399.7762     375.3501   1427.49207     399.7762     375.3501
   1427.47681     400.7722     377.3110   1427.47681     400.7722     377.3110
   1427.46155     403.2378     379.3057   1427.46155     403.2378     379.3057
   1427.44629     404.9573     382.0872   1427.44629     404.9573     382.0872
   1427.43103     406.7325     385.1448   1427.43103     406.7325     385.1448
   1427.41577     408.0585     387.1128   1427.41577     408.0585     387.1128
   1427.40051     410.0226     390.4380   1427.40051     410.0226     390.4380
   1427.38525     412.5152     392.1530   1427.38525     412.5152     392.1530
   1427.37000     414.1272     394.9544   1427.37000     414.1272     394.9544
   1427.35474     415.9736     398.0380   1427.35474     415.9736     398.0380
   1427.33948     417.6487     400.7487   1427.33948     417.6487     400.7487
   1427.32422     420.1530     402.4550   1427.32422     420.1530     402.4550
   1427.30896     422.5134     405.2847   1427.30896     422.5134     405.2847
   1427.29370     425.0393     408.9570   1427.29370     425.0393     408.9570
   1427.27844     427.0961     411.9969   1427.27844     427.0961     411.9969
   1427.26318     428.7701     413.6356   1427.26318     428.7701     413.6356
   1427.24792     431.6147     417.1814   1427.24792     431.6147     417.1814
   1427.23267     433.4148     418.7848   1427.23267     433.4148     418.7848
   1427.21741     435.3722     422.1722   1427.21741     435.3722     422.1722
   1427.20215     438.2455     425.3293   1427.20215     438.2455     425.3293
   1427.18689     441.3694     428.1717   1427.18689     441.3694     428.1717
   1427.17163     443.7335     430.5926   1427.17163     443.7335     430.5926
   1427.15637     446.3242     433.0964   1427.15637     446.3242     433.0964
   1427.14111     448.2537     436.6809   1427.14111     448.2537     436.6809
   1427.12585     451.2497     439.3085   1427.12585     451.2497     439.3085
   1427.11060     453.9647     441.9854   1427.11060     453.9647     441.9854
   1427.09534     456.6340     444.6111   1427.09534     456.6340     444.6111
   1427.08008     459.2583     447.8130   1427.08008     459.2583     447.8130
   1427.06482     461.9531     450.7885   1427.06482     461.9531     450.7885
   1427.04956     464.3882     453.8307   1427.04956     464.3882     453.8307
   1427.03430     466.6915     455.8307   1427.03430     466.6915     455.8307
   1427.01904     470.1704     459.1367   1427.01904     470.1704     459.1367
   1427.00378     473.2575     461.8062   1427.00378     473.2575     461.8062
   1426.98853     476.2130     464.5464   1426.98853     476.2130     464.5464
   1426.97327     478.7321     467.9526   1426.97327     478.7321     467.9526
   1426.95801     481.1614     471.0681   1426.95801     481.1614     471.0681
   1426.94275     484.0440     473.3794   1426.94275     484.0440     473.3794
   1426.92749     487.1414     476.4771   1426.92749     487.1414     476.4771
   1426.91223     489.8777     479.2475   1426.91223     489.8777     479.2475
   1426.89697     493.4660     482.0121   1426.89697     493.4660     482.0121
   1426.88171     496.5416     484.9139   1426.88171     496.5416     484.9139
   1426.86646     500.3061     487.6241   1426.86646     500.3061     487.6241
   1426.85120     502.5832     490.8229   1426.85120     502.5832     490.8229
   1426.83594     504.7205     493.3581   1426.83594     504.7205     493.3581
   1426.82068     507.9228     495.5825   1426.82068     507.9228     495.5825
   1426.80542     510.7442     498.1156   1426.80542     510.7442     498.1156
   1426.79016     515.0568     500.2117   1426.79016     515.0568     500.2117
   1426.77490     516.6307     503.0859   1426.77490     516.6307     503.0859
   1426.75964     520.3502     507.4369   1426.75964     520.3502     507.4369
   1426.74438     524.1412     509.4903   1426.74438     524.1412     509.4903
   1426.72913     526.0504     512.3555   1426.72913     526.0504     512.3555
   1426.71387     529.8600     514.1067   1426.71387     529.8600     514.1067
   1426.69861     532.7108     516.9783   1426.69861     532.7108     516.9783
   1426.68335     536.2391     520.1552   1426.68335     536.2391     520.1552
   1426.66809     539.4098     521.5556   1426.66809     539.4098     521.5556
   1426.65283     542.8290     524.6038   1426.65283     542.8290     524.6038
   1426.63757     545.3153     527.1677   1426.63757     545.3153     527.1677
   1426.62231     555.0039     529.4348   1426.62231     555.0039     529.4348
   1426.60706     552.6973     531.9586   1426.60706     552.6973     531.9586
   1426.59180     554.3034     534.8851   1426.59180     554.3034     534.8851
   1426.57654     558.7558     536.8281   1426.57654     558.7558     536.8281
   1426.56128     561.9664     539.5494   1426.56128     561.9664     539.5494
   1426.54602     563.1354     541.1205   1426.54602     563.1354     541.1205
   1426.53076     567.0344     543.5757   1426.53076     567.0344     543.5757
   1426.51550     570.3838     546.3180   1426.51550     570.3838     546.3180
   1426.50024     573.6147     548.6149   1426.50024     573.6147     548.6149
   1426.48499     575.6000     550.7866   1426.48499     575.6000     550.7866
   1426.46973     579.4615     553.1991   1426.46973     579.4615     553.1991
   1426.45447     582.5312     555.9285   1426.45447     582.5312     555.9285
   1426.43921     585.6293     557.5446   1426.43921     585.6293     557.5446
   1426.42395     588.9590     559.3020   1426.42395     588.9590     559.3020
   1426.40869     591.4890     561.5144   1426.40869     591.4890     561.5144
   1426.39343     594.7354     563.6781   1426.39343     594.7354     563.6781
   1426.37817     597.0059     565.2823   1426.37817     597.0059     565.2823
   1426.36292     600.8316     567.3787   1426.36292     600.8316     567.3787
   1426.34766     603.5593     569.8917   1426.34766     603.5593     569.8917
   1426.33240     606.8642     571.8768   1426.33240     606.8642     571.8768
   1426.31714     608.8194     573.7062   1426.31714     608.8194     573.7062
   1426.30188     612.4502     575.1116   1426.30188     612.4502     575.1116
   1426.28662     614.7492     576.6240   1426.28662     614.7492     576.6240
   1426.27136     618.0444     577.7140   1426.27136     618.0444     577.7140
   1426.25610     621.7936     580.6594   1426.25610     621.7936     580.6594
   1426.24084     623.8715     582.5660   1426.24084     623.8715     582.5660
   1426.22559     626.0179     583.6656   1426.22559     626.0179     583.6656
   1426.21033     629.9781     586.2617   1426.21033     629.9781     586.2617
   1426.19507     632.4261     586.5567   1426.19507     632.4261     586.5567
   1426.17981     634.9692     587.8451   1426.17981     634.9692     587.8451
   1426.16455     637.0275     591.3354   1426.16455     637.0275     591.3354
   1426.14929     640.2197     591.7851   1426.14929     640.2197     591.7851
   1426.13403     644.3904     593.7156   1426.13403     644.3904     593.7156
   1426.11877     646.4634     595.1822   1426.11877     646.4634     595.1822
   1426.10352     649.1338     596.3793   1426.10352     649.1338     596.3793
   1426.08826     652.0334     597.4791   1426.08826     652.0334     597.4791
   1426.07300     653.1491     599.3291   1426.07300     653.1491     599.3291
   1426.05774     657.4261     600.6449   1426.05774     657.4261     600.6449
   1426.04248     659.6135     601.3829   1426.04248     659.6135     601.3829
   1426.02722     662.6501     603.4005   1426.02722     662.6501     603.4005
   1426.01196     664.9338     604.4993   1426.01196     664.9338     604.4993
   1425.99670     667.3509     605.6740   1425.99670     667.3509     605.6740
   1425.98145     668.3900     606.3464   1425.98145     668.3900     606.3464
   1425.96619     671.4202     607.9979   1425.96619     671.4202     607.9979
   1425.95093     673.9255     608.7708   1425.95093     673.9255     608.7708
   1425.93567     676.6081     609.6658   1425.93567     676.6081     609.6658
   1425.92041     678.5354     611.2065   1425.92041     678.5354     611.2065
   1425.90515     681.0789     613.1093   1425.90515     681.0789     613.1093
   1425.88989     682.6813     613.2140   1425.88989     682.6813     613.2140
   1425.87463     684.5799     613.6067   1425.87463     684.5799     613.6067
   1425.85938     686.3963     616.2876   1425.85938     686.3963     616.2876
   1425.84412     688.3066     616.3175   1425.84412     688.3066     616.3175
   1425.82886     691.7054     617.3358   1425.82886     691.7054     617.3358
   1425.81360     694.1843     619.0310   1425.81360     694.1843     619.0310
   1425.79834     697.2531     618.1937   1425.79834     697.2531     618.1937
   1425.78308     698.9107     620.0770   1425.78308     698.9107     620.0770
   1425.76782     701.1205     620.3979   1425.76782     701.1205     620.3979
   1425.75256     702.0361     621.4534   1425.75256     702.0361     621.4534
   1425.73730     704.0433     622.8051   1425.73730     704.0433     622.8051
   1425.72205     706.5580     623.4276   1425.72205     706.5580     623.4276
   1425.70679     708.9545     623.3066   1425.70679     708.9545     623.3066
   1425.69153     710.6425     624.0226   1425.69153     710.6425     624.0226
   1425.67627     712.6542     626.2654   1425.67627     712.6542     626.2654
   1425.66101     713.5092     626.6353   1425.66101     713.5092     626.6353
   1425.64575     715.8441     625.9960   1425.64575     715.8441     625.9960
   1425.63049     717.7162     625.9678   1425.63049     717.7162     625.9678
   1425.61523     719.9647     627.5532   1425.61523     719.9647     627.5532
   1425.59998     721.6021     627.7250   1425.59998     721.6021     627.7250
   1425.58472     723.1071     628.2369   1425.58472     723.1071     628.2369
   1425.56946     724.8699     628.9929   1425.56946     724.8699     628.9929
   1425.55420     725.2790     629.4519   1425.55420     725.2790     629.4519
   1425.53894     727.0605     629.1003   1425.53894     727.0605     629.1003
   1425.52368     729.0268     629.5778   1425.52368     729.0268     629.5778
   1425.50842     730.4551     629.7963   1425.50842     730.4551     629.7963
   1425.49316     731.3070     630.3735   1425.49316     731.3070     630.3735
   1425.47791     732.7631     632.2574   1425.47791     732.7631     632.2574
   1425.46265     733.8999     631.4342   1425.46265     733.8999     631.4342
   1425.44739     737.9628     632.3455   1425.44739     737.9628     632.3455
   1425.43213     736.8405     632.9357   1425.43213     736.8405     632.9357
   1425.41687     739.5765     633.9623   1425.41687     739.5765     633.9623
   1425.40161     740.3378     633.2708   1425.40161     740.3378     633.2708
   1425.38635     740.9194     633.0896   1425.38635     740.9194     633.0896
   1425.37109     742.3861     632.6753   1425.37109     742.3861     632.6753
   1425.35583     743.4895     632.9879   1425.35583     743.4895     632.9879
   1425.34058     744.3495     632.9628   1425.34058     744.3495     632.9628
   1425.32532     745.6069     634.0170   1425.32532     745.6069     634.0170
   1425.31006     747.0500     634.5711   1425.31006     747.0500     634.5711
   1425.29480     747.9404     633.7603   1425.29480     747.9404     633.7603
   1425.27954     749.5886     632.9321   1425.27954     749.5886     632.9321
   1425.26428     750.3664     633.9948   1425.26428     750.3664     633.9948
   1425.24902     751.2868     634.2484   1425.24902     751.2868     634.2484
   1425.23376     752.5247     634.7706   1425.23376     752.5247     634.7706
   1425.21851     752.3781     634.5292   1425.21851     752.3781     634.5292
   1425.20325     753.9625     634.5179   1425.20325     753.9625     634.5179
   1425.18799     754.3290     633.8284   1425.18799     754.3290     633.8284
   1425.17273     756.5519     633.3867   1425.17273     756.5519     633.3867
   1425.15747     756.1869     634.2415   1425.15747     756.1869     634.2415
   1425.14221     757.8036     634.4681   1425.14221     757.8036     634.4681
   1425.12695     757.6735     633.6158   1425.12695     757.6735     633.6158
   1425.11169     757.1972     634.5567   1425.11169     757.1972     634.5567
   1425.09644     759.2757     633.6418   1425.09644     759.2757     633.6418
   1425.08118     758.6569     633.0956   1425.08118     758.6569     633.0956
   1425.06592     759.8813     633.8408   1425.06592     759.8813     633.8408
   1425.05066     758.7729     633.4759   1425.05066     758.7729     633.4759
   1425.03540     761.9351     633.8444   1425.03540     761.9351     633.8444
   1425.02014     761.7850     633.7996   1425.02014     761.7850     633.7996
   1425.00488     761.7699     633.5746   1425.00488     761.7699     633.5746
   1424.98962     760.8917     633.9020   1424.98962     760.8917     633.9020
   1424.97437     763.5707     633.9270   1424.97437     763.5707     633.9270
   1424.95911     762.4630     633.5716   1424.95911     762.4630     633.5716
   1424.94385     762.9691     633.2803   1424.94385     762.9691     633.2803
   1424.92859     764.8964     632.0494   1424.92859     764.8964     632.0494
   1424.91333     765.8800     632.2452   1424.91333     765.8800     632.2452
   1424.89807     766.2819     633.6959   1424.89807     766.2819     633.6959
   1424.88281     765.3563     632.1080   1424.88281     765.3563     632.1080
   1424.86755     766.1663     631.5232   1424.86755     766.1663     631.5232
   1424.85229     766.6069     630.4856   1424.85229     766.6069     630.4856
   1424.83704     766.2751     630.8290   1424.83704     766.2751     630.8290
   1424.82178     766.4663     632.0040   1424.82178     766.4663     632.0040
   1424.80652     765.9388     631.0226   1424.80652     765.9388     631.0226
   1424.79126     765.5318     630.4747   1424.79126     765.5318     630.4747
   1424.77600     767.0333     629.4459   1424.77600     767.0333     629.4459
   1424.76074     766.7002     629.7732   1424.76074     766.7002     629.7732
   1424.74548     768.0740     629.6234   1424.74548     768.0740     629.6234
   1424.73022     766.8262     628.2055   1424.73022     766.8262     628.2055
   1424.71497     767.0505     629.3329   1424.71497     767.0505     629.3329
   1424.69971     768.6292     628.1443   1424.69971     768.6292     628.1443
   1424.68445     766.9429     627.3177   1424.68445     766.9429     627.3177
   1424.66919     767.6559     627.1041   1424.66919     767.6559     627.1041
   1424.65393     767.7631     626.2390   1424.65393     767.7631     626.2390
   1424.63867     766.6246     626.4886   1424.63867     766.6246     626.4886
   1424.62341     768.9962     626.8778   1424.62341     768.9962     626.8778
   1424.60815     768.2557     625.7513   1424.60815     768.2557     625.7513
   1424.59290     766.4227     626.4560   1424.59290     766.4227     626.4560
   1424.57764     767.4807     625.4846   1424.57764     767.4807     625.4846
   1424.56238     766.7949     623.4554   1424.56238     766.7949     623.4554
   1424.54712     767.1215     624.5098   1424.54712     767.1215     624.5098
   1424.53186     766.5654     623.3951   1424.53186     766.5654     623.3951
   1424.51660     767.0007     624.1656   1424.51660     767.0007     624.1656
   1424.50134     766.7975     623.8858   1424.50134     766.7975     623.8858
   1424.48608     767.4670     622.4690   1424.48608     767.4670     622.4690
   1424.47083     765.6631     621.4119   1424.47083     765.6631     621.4119
   1424.45557     765.6224     621.7209   1424.45557     765.6224     621.7209
   1424.44031     766.5397     620.3513   1424.44031     766.5397     620.3513
   1424.42505     766.1371     620.7820   1424.42505     766.1371     620.7820
   1424.40979     765.0214     620.2786   1424.40979     765.0214     620.2786
   1424.39453     766.5370     619.0387   1424.39453     766.5370     619.0387
   1424.37927     765.7268     619.0079   1424.37927     765.7268     619.0079
   1424.36401     764.4841     618.1470   1424.36401     764.4841     618.1470
   1424.34875     764.3172     618.2993   1424.34875     764.3172     618.2993
   1424.33350     764.3937     617.8181   1424.33350     764.3937     617.8181
   1424.31824     763.4120     616.7271   1424.31824     763.4120     616.7271
   1424.30298     765.0031     616.7454   1424.30298     765.0031     616.7454
   1424.28772     763.1140     615.3967   1424.28772     763.1140     615.3967
   1424.27246     764.1940     615.1611   1424.27246     764.1940     615.1611
   1424.25720     763.7019     615.2728   1424.25720     763.7019     615.2728
   1424.24194     763.6616     614.8079   1424.24194     763.6616     614.8079
   1424.22668     762.5298     614.5410   1424.22668     762.5298     614.5410
   1424.21143     763.3145     614.3760   1424.21143     763.3145     614.3760
   1424.19617     762.1036     612.5502   1424.19617     762.1036     612.5502
   1424.18091     761.6225     613.5330   1424.18091     761.6225     613.5330
   1424.16565     759.1790     610.2041   1424.16565     759.1790     610.2041
