#     FILENAME=!Skynet_57533_lach-hhg-193-2_20792_21210.cyb.fits
#     BASENAME=Skynet_57533_lach-hhg-193-2_20792_21210
#     SRC_NAME=lach-hhg-193-2
#     OBSERVER=ccmadison16_9505
#     DATE_OBS=2016-05-25T18:37:51.560
#        OBSID=20792
#      SCANNUM=21210
#          MJD=57533.7773
#          UTC=67160
#     SCANTYPE=track
#     DATAMODE=HIRES
#     TUNEFREQ=1420.0000
# Actual_FREQ1=1420.0000
# Actual_FREQ2=1420.0000
#    LO1Tuning=6870.000
#     RFFILTER=1355_1435
#        OBSBW=-15.6250
#        NCHAN=1024 
#        FOCUS=37.0709
#           RA=06:13:50.92
#          DEC=17:39:43.46
#      RA(hrs)=6.230800
#     DEC(deg)=17.662100
#    AZIM(deg)=153.248
#    ELEV(deg)=67.236
#     IFattens=10.00, 9.00
#      WARNING=None
#    TCAL_XL1=7.9635
#    TCAL_YR1=9.1340
#    TCAL_XL2=7.9635
#    TCAL_YR2=9.1340
#     TRX_XL1=11.7060
#     TRX_YR1=11.7060
#     TRX_XL2=11.7060
#     TRX_YR2=11.7060
#        TAVE=1.0000
#Freq1(MHz)          XL1          YR1  Freq2(MHz)          XL2          YR2 

   1427.81250     368.5447     267.2010   1427.81250     368.5447     267.2010
   1427.79724     368.4075     268.1209   1427.79724     368.4075     268.1209
   1427.78198     369.3681     269.1013   1427.78198     369.3681     269.1013
   1427.76672     369.9227     269.9971   1427.76672     369.9227     269.9971
   1427.75146     370.6078     271.2520   1427.75146     370.6078     271.2520
   1427.73621     371.1763     272.1200   1427.73621     371.1763     272.1200
   1427.72095     372.1510     273.5092   1427.72095     372.1510     273.5092
   1427.70569     372.7005     274.2964   1427.70569     372.7005     274.2964
   1427.69043     373.5057     275.4096   1427.69043     373.5057     275.4096
   1427.67517     374.7773     276.6111   1427.67517     374.7773     276.6111
   1427.65991     375.4049     277.6009   1427.65991     375.4049     277.6009
   1427.64465     377.1979     278.4657   1427.64465     377.1979     278.4657
   1427.62939     378.0571     280.0562   1427.62939     378.0571     280.0562
   1427.61414     380.0624     281.3153   1427.61414     380.0624     281.3153
   1427.59888     380.4169     282.3919   1427.59888     380.4169     282.3919
   1427.58362     382.0460     283.4383   1427.58362     382.0460     283.4383
   1427.56836     383.2000     285.2047   1427.56836     383.2000     285.2047
   1427.55310     385.0278     286.7964   1427.55310     385.0278     286.7964
   1427.53784     386.1334     288.2267   1427.53784     386.1334     288.2267
   1427.52258     387.3282     289.4590   1427.52258     387.3282     289.4590
   1427.50732     389.5991     290.6943   1427.50732     389.5991     290.6943
   1427.49207     390.8036     292.4755   1427.49207     390.8036     292.4755
   1427.47681     392.4927     293.3262   1427.47681     392.4927     293.3262
   1427.46155     394.4915     295.5083   1427.46155     394.4915     295.5083
   1427.44629     396.8958     296.9500   1427.44629     396.8958     296.9500
   1427.43103     398.5771     298.7004   1427.43103     398.5771     298.7004
   1427.41577     399.8488     300.2266   1427.41577     399.8488     300.2266
   1427.40051     402.1613     301.6622   1427.40051     402.1613     301.6622
   1427.38525     403.5100     303.2023   1427.38525     403.5100     303.2023
   1427.37000     405.4569     304.8643   1427.37000     405.4569     304.8643
   1427.35474     407.8990     306.6513   1427.35474     407.8990     306.6513
   1427.33948     410.5649     308.4242   1427.33948     410.5649     308.4242
   1427.32422     412.5260     310.2941   1427.32422     412.5260     310.2941
   1427.30896     415.0320     311.7976   1427.30896     415.0320     311.7976
   1427.29370     416.5836     313.3768   1427.29370     416.5836     313.3768
   1427.27844     419.8846     314.7877   1427.27844     419.8846     314.7877
   1427.26318     421.8713     316.8737   1427.26318     421.8713     316.8737
   1427.24792     423.6883     318.4873   1427.24792     423.6883     318.4873
   1427.23267     427.1473     320.3448   1427.23267     427.1473     320.3448
   1427.21741     428.6743     322.1876   1427.21741     428.6743     322.1876
   1427.20215     431.8112     324.3346   1427.20215     431.8112     324.3346
   1427.18689     433.9805     325.9779   1427.18689     433.9805     325.9779
   1427.17163     436.6569     327.6658   1427.17163     436.6569     327.6658
   1427.15637     439.1708     329.1443   1427.15637     439.1708     329.1443
   1427.14111     441.5987     331.1845   1427.14111     441.5987     331.1845
   1427.12585     444.2432     333.0763   1427.12585     444.2432     333.0763
   1427.11060     447.0243     335.2428   1427.11060     447.0243     335.2428
   1427.09534     450.2784     337.5204   1427.09534     450.2784     337.5204
   1427.08008     452.9625     338.3597   1427.08008     452.9625     338.3597
   1427.06482     455.5898     340.4522   1427.06482     455.5898     340.4522
   1427.04956     458.3528     342.2335   1427.04956     458.3528     342.2335
   1427.03430     461.6398     344.2236   1427.03430     461.6398     344.2236
   1427.01904     464.2584     346.4837   1427.01904     464.2584     346.4837
   1427.00378     467.8100     348.0555   1427.00378     467.8100     348.0555
   1426.98853     469.9123     350.0658   1426.98853     469.9123     350.0658
   1426.97327     473.3784     351.7444   1426.97327     473.3784     351.7444
   1426.95801     477.0954     354.1205   1426.95801     477.0954     354.1205
   1426.94275     479.9313     356.1606   1426.94275     479.9313     356.1606
   1426.92749     482.9323     358.1355   1426.92749     482.9323     358.1355
   1426.91223     485.5966     359.7718   1426.91223     485.5966     359.7718
   1426.89697     489.5854     361.4128   1426.89697     489.5854     361.4128
   1426.88171     491.9183     363.3874   1426.88171     491.9183     363.3874
   1426.86646     495.9579     365.4590   1426.86646     495.9579     365.4590
   1426.85120     499.4570     367.6999   1426.85120     499.4570     367.6999
   1426.83594     501.9261     369.4124   1426.83594     501.9261     369.4124
   1426.82068     504.5729     371.3273   1426.82068     504.5729     371.3273
   1426.80542     509.0719     372.5458   1426.80542     509.0719     372.5458
   1426.79016     512.0336     374.8865   1426.79016     512.0336     374.8865
   1426.77490     514.8030     377.5329   1426.77490     514.8030     377.5329
   1426.75964     518.1254     378.4009   1426.75964     518.1254     378.4009
   1426.74438     522.0991     379.9924   1426.74438     522.0991     379.9924
   1426.72913     525.0452     381.8254   1426.72913     525.0452     381.8254
   1426.71387     529.2218     384.0183   1426.71387     529.2218     384.0183
   1426.69861     531.6411     386.1468   1426.69861     531.6411     386.1468
   1426.68335     535.4683     388.1024   1426.68335     535.4683     388.1024
   1426.66809     538.6827     389.6994   1426.66809     538.6827     389.6994
   1426.65283     542.6346     391.0422   1426.65283     542.6346     391.0422
   1426.63757     545.8041     393.1288   1426.63757     545.8041     393.1288
   1426.62231     550.3724     395.2650   1426.62231     550.3724     395.2650
   1426.60706     553.3629     396.6903   1426.60706     553.3629     396.6903
   1426.59180     555.7585     398.6250   1426.59180     555.7585     398.6250
   1426.57654     558.6691     400.7777   1426.57654     558.6691     400.7777
   1426.56128     561.9858     401.8786   1426.56128     561.9858     401.8786
   1426.54602     565.7755     403.9592   1426.54602     565.7755     403.9592
   1426.53076     569.6150     405.8440   1426.53076     569.6150     405.8440
   1426.51550     572.3623     407.5086   1426.51550     572.3623     407.5086
   1426.50024     575.4702     408.8606   1426.50024     575.4702     408.8606
   1426.48499     579.5771     411.1482   1426.48499     579.5771     411.1482
   1426.46973     582.7734     412.5451   1426.46973     582.7734     412.5451
   1426.45447     586.0143     413.6873   1426.45447     586.0143     413.6873
   1426.43921     590.2493     415.6652   1426.43921     590.2493     415.6652
   1426.42395     592.7479     417.2115   1426.42395     592.7479     417.2115
   1426.40869     596.0648     418.3665   1426.40869     596.0648     418.3665
   1426.39343     600.6940     420.6951   1426.39343     600.6940     420.6951
   1426.37817     602.6415     421.6627   1426.37817     602.6415     421.6627
   1426.36292     606.0338     423.6662   1426.36292     606.0338     423.6662
   1426.34766     609.7642     425.2430   1426.34766     609.7642     425.2430
   1426.33240     613.2715     427.4007   1426.33240     613.2715     427.4007
   1426.31714     616.5744     428.2375   1426.31714     616.5744     428.2375
   1426.30188     618.8753     429.5041   1426.30188     618.8753     429.5041
   1426.28662     623.3646     431.8207   1426.28662     623.3646     431.8207
   1426.27136     626.5407     431.9099   1426.27136     626.5407     431.9099
   1426.25610     629.5251     433.6610   1426.25610     629.5251     433.6610
   1426.24084     633.6290     435.8610   1426.24084     633.6290     435.8610
   1426.22559     635.3752     437.1336   1426.22559     635.3752     437.1336
   1426.21033     637.6081     438.0453   1426.21033     637.6081     438.0453
   1426.19507     641.9940     440.2121   1426.19507     641.9940     440.2121
   1426.17981     644.5412     441.0424   1426.17981     644.5412     441.0424
   1426.16455     648.4215     441.8017   1426.16455     648.4215     441.8017
   1426.14929     651.2823     444.2034   1426.14929     651.2823     444.2034
   1426.13403     654.9161     444.4028   1426.13403     654.9161     444.4028
   1426.11877     657.8265     446.0700   1426.11877     657.8265     446.0700
   1426.10352     660.1754     448.0829   1426.10352     660.1754     448.0829
   1426.08826     663.1984     448.7689   1426.08826     663.1984     448.7689
   1426.07300     666.0931     449.9797   1426.07300     666.0931     449.9797
   1426.05774     670.1449     451.5090   1426.05774     670.1449     451.5090
   1426.04248     672.3918     453.4090   1426.04248     672.3918     453.4090
   1426.02722     675.8987     454.1108   1426.02722     675.8987     454.1108
   1426.01196     679.0110     455.1495   1426.01196     679.0110     455.1495
   1425.99670     680.9556     456.7233   1425.99670     680.9556     456.7233
   1425.98145     683.7880     458.1452   1425.98145     683.7880     458.1452
   1425.96619     687.0139     458.6838   1425.96619     687.0139     458.6838
   1425.95093     688.9555     459.4503   1425.95093     688.9555     459.4503
   1425.93567     691.8722     460.7349   1425.93567     691.8722     460.7349
   1425.92041     694.7172     462.0208   1425.92041     694.7172     462.0208
   1425.90515     697.5424     463.3902   1425.90515     697.5424     463.3902
   1425.88989     700.7958     464.1048   1425.88989     700.7958     464.1048
   1425.87463     702.4941     465.8480   1425.87463     702.4941     465.8480
   1425.85938     704.5755     466.6666   1425.85938     704.5755     466.6666
   1425.84412     708.5878     467.7458   1425.84412     708.5878     467.7458
   1425.82886     710.6489     468.6462   1425.82886     710.6489     468.6462
   1425.81360     713.4440     468.9809   1425.81360     713.4440     468.9809
   1425.79834     715.5292     470.4195   1425.79834     715.5292     470.4195
   1425.78308     717.5710     471.7578   1425.78308     717.5710     471.7578
   1425.76782     720.5259     471.2219   1425.76782     720.5259     471.2219
   1425.75256     722.1198     473.2759   1425.75256     722.1198     473.2759
   1425.73730     725.5821     474.2935   1425.73730     725.5821     474.2935
   1425.72205     727.7189     475.3606   1425.72205     727.7189     475.3606
   1425.70679     729.5294     475.8409   1425.70679     729.5294     475.8409
   1425.69153     731.6329     477.1239   1425.69153     731.6329     477.1239
   1425.67627     733.8945     477.0607   1425.67627     733.8945     477.0607
   1425.66101     735.4655     478.6680   1425.66101     735.4655     478.6680
   1425.64575     736.8311     479.5167   1425.64575     736.8311     479.5167
   1425.63049     738.8405     480.8578   1425.63049     738.8405     480.8578
   1425.61523     741.0152     482.2053   1425.61523     741.0152     482.2053
   1425.59998     743.2920     481.8549   1425.59998     743.2920     481.8549
   1425.58472     746.0917     482.8408   1425.58472     746.0917     482.8408
   1425.56946     748.0908     483.2253   1425.56946     748.0908     483.2253
   1425.55420     749.5464     485.0619   1425.55420     749.5464     485.0619
   1425.53894     751.3746     485.1534   1425.53894     751.3746     485.1534
   1425.52368     752.9225     485.3811   1425.52368     752.9225     485.3811
   1425.50842     755.2443     486.1497   1425.50842     755.2443     486.1497
   1425.49316     756.3682     486.8300   1425.49316     756.3682     486.8300
   1425.47791     757.6548     487.8166   1425.47791     757.6548     487.8166
   1425.46265     760.1627     489.0051   1425.46265     760.1627     489.0051
   1425.44739     761.0140     488.9817   1425.44739     761.0140     488.9817
   1425.43213     761.9716     488.8773   1425.43213     761.9716     488.8773
   1425.41687     765.1276     490.7102   1425.41687     765.1276     490.7102
   1425.40161     765.4393     490.9204   1425.40161     765.4393     490.9204
   1425.38635     767.6233     491.1563   1425.38635     767.6233     491.1563
   1425.37109     768.4966     492.0083   1425.37109     768.4966     492.0083
   1425.35583     769.9034     493.3270   1425.35583     769.9034     493.3270
   1425.34058     770.7650     493.8407   1425.34058     770.7650     493.8407
   1425.32532     772.9017     494.0387   1425.32532     772.9017     494.0387
   1425.31006     774.0781     494.1102   1425.31006     774.0781     494.1102
   1425.29480     773.5612     494.8586   1425.29480     773.5612     494.8586
   1425.27954     775.7657     495.6353   1425.27954     775.7657     495.6353
   1425.26428     777.3877     495.4149   1425.26428     777.3877     495.4149
   1425.24902     779.5067     496.4003   1425.24902     779.5067     496.4003
   1425.23376     779.5345     497.6491   1425.23376     779.5345     497.6491
   1425.21851     780.1823     497.0809   1425.21851     780.1823     497.0809
   1425.20325     782.7350     497.7357   1425.20325     782.7350     497.7357
   1425.18799     782.1252     499.0522   1425.18799     782.1252     499.0522
   1425.17273     783.5097     499.0154   1425.17273     783.5097     499.0154
   1425.15747     785.5240     499.9124   1425.15747     785.5240     499.9124
   1425.14221     785.5212     500.6679   1425.14221     785.5212     500.6679
   1425.12695     785.9552     500.7408   1425.12695     785.9552     500.7408
   1425.11169     787.4568     500.9339   1425.11169     787.4568     500.9339
   1425.09644     787.5627     501.0585   1425.09644     787.5627     501.0585
   1425.08118     788.9554     501.2808   1425.08118     788.9554     501.2808
   1425.06592     789.2963     501.7785   1425.06592     789.2963     501.7785
   1425.05066     789.7776     503.3294   1425.05066     789.7776     503.3294
   1425.03540     791.9346     503.3699   1425.03540     791.9346     503.3699
   1425.02014     790.1196     503.4388   1425.02014     790.1196     503.4388
   1425.00488     791.0759     503.8491   1425.00488     791.0759     503.8491
   1424.98962     794.3900     504.5576   1424.98962     794.3900     504.5576
   1424.97437     792.1053     505.5195   1424.97437     792.1053     505.5195
   1424.95911     793.7372     505.2540   1424.95911     793.7372     505.2540
   1424.94385     793.4028     505.0034   1424.94385     793.4028     505.0034
   1424.92859     794.3808     505.9745   1424.92859     794.3808     505.9745
   1424.91333     793.0786     506.4352   1424.91333     793.0786     506.4352
   1424.89807     794.4508     506.5319   1424.89807     794.4508     506.5319
   1424.88281     793.6758     507.2978   1424.88281     793.6758     507.2978
   1424.86755     795.0062     508.0875   1424.86755     795.0062     508.0875
   1424.85229     796.7023     507.7411   1424.85229     796.7023     507.7411
   1424.83704     795.7413     508.7172   1424.83704     795.7413     508.7172
   1424.82178     796.1738     509.0766   1424.82178     796.1738     509.0766
   1424.80652     796.1896     508.3909   1424.80652     796.1896     508.3909
   1424.79126     796.5854     508.6436   1424.79126     796.5854     508.6436
   1424.77600     797.4459     509.1056   1424.77600     797.4459     509.1056
   1424.76074     796.3982     509.9095   1424.76074     796.3982     509.9095
   1424.74548     796.0946     510.5398   1424.74548     796.0946     510.5398
   1424.73022     797.0342     510.4241   1424.73022     797.0342     510.4241
   1424.71497     797.0732     510.9889   1424.71497     797.0732     510.9889
   1424.69971     796.2716     510.9879   1424.69971     796.2716     510.9879
   1424.68445     796.5391     511.6941   1424.68445     796.5391     511.6941
   1424.66919     795.7319     511.3466   1424.66919     795.7319     511.3466
   1424.65393     795.6559     510.8581   1424.65393     795.6559     510.8581
   1424.63867     796.4290     511.7271   1424.63867     796.4290     511.7271
   1424.62341     796.7128     512.4298   1424.62341     796.7128     512.4298
   1424.60815     796.6852     512.8183   1424.60815     796.6852     512.8183
   1424.59290     795.6378     513.3461   1424.59290     795.6378     513.3461
   1424.57764     794.9751     514.1348   1424.57764     794.9751     514.1348
   1424.56238     796.2048     513.5219   1424.56238     796.2048     513.5219
   1424.54712     794.8557     513.8979   1424.54712     794.8557     513.8979
   1424.53186     794.2523     513.7882   1424.53186     794.2523     513.7882
   1424.51660     795.4429     513.6677   1424.51660     795.4429     513.6677
   1424.50134     793.1523     514.0411   1424.50134     793.1523     514.0411
   1424.48608     793.6127     514.0793   1424.48608     793.6127     514.0793
   1424.47083     793.8468     514.1486   1424.47083     793.8468     514.1486
   1424.45557     793.0204     514.8955   1424.45557     793.0204     514.8955
   1424.44031     793.1102     515.6038   1424.44031     793.1102     515.6038
   1424.42505     793.0267     515.6791   1424.42505     793.0267     515.6791
   1424.40979     791.8176     515.6876   1424.40979     791.8176     515.6876
   1424.39453     791.4739     515.9996   1424.39453     791.4739     515.9996
   1424.37927     791.5787     515.9864   1424.37927     791.5787     515.9864
   1424.36401     791.9095     515.5937   1424.36401     791.9095     515.5937
   1424.34875     790.9683     515.8904   1424.34875     790.9683     515.8904
   1424.33350     789.5145     516.0255   1424.33350     789.5145     516.0255
   1424.31824     790.3337     516.4869   1424.31824     790.3337     516.4869
   1424.30298     789.6948     516.7418   1424.30298     789.6948     516.7418
   1424.28772     789.2899     516.4913   1424.28772     789.2899     516.4913
   1424.27246     788.7424     516.8021   1424.27246     788.7424     516.8021
   1424.25720     787.3560     517.4526   1424.25720     787.3560     517.4526
   1424.24194     787.0421     516.7391   1424.24194     787.0421     516.7391
   1424.22668     787.8630     518.2468   1424.22668     787.8630     518.2468
   1424.21143     785.2699     518.3542   1424.21143     785.2699     518.3542
   1424.19617     785.0355     518.1455   1424.19617     785.0355     518.1455
   1424.18091     785.3608     517.3335   1424.18091     785.3608     517.3335
   1424.16565     783.9353     518.0676   1424.16565     783.9353     518.0676
