#     FILENAME=!Skynet_57528_lach-cc-200_20605_21059.cyb.fits
#     BASENAME=Skynet_57528_lach-cc-200_20605_21059
#     SRC_NAME=lach-cc-200
#     OBSERVER=ccmadison16_9505
#     DATE_OBS=2016-05-20T20:34:52.250
#        OBSID=20605
#      SCANNUM=21059
#          MJD=57528.8585
#          UTC=74170
#     SCANTYPE=track
#     DATAMODE=HIRES
#     TUNEFREQ=1420.0000
# Actual_FREQ1=1420.0000
# Actual_FREQ2=1420.0000
#    LO1Tuning=6870.000
#     RFFILTER=1355_1435
#        OBSBW=-15.6250
#        NCHAN=1024 
#        FOCUS=37.0709
#           RA=06:27:29.34
#          DEC=11:29:19.58
#      RA(hrs)=6.458200
#     DEC(deg)=11.488800
#    AZIM(deg)=201.829
#    ELEV(deg)=61.275
#     IFattens=10.00, 9.00
#      WARNING=None
#    TCAL_XL1=7.9635
#    TCAL_YR1=9.1340
#    TCAL_XL2=7.9635
#    TCAL_YR2=9.1340
#     TRX_XL1=11.7060
#     TRX_YR1=11.7060
#     TRX_XL2=11.7060
#     TRX_YR2=11.7060
#        TAVE=1.0000
#Freq1(MHz)          XL1          YR1  Freq2(MHz)          XL2          YR2 

   1427.81250     347.4218     264.5094   1427.81250     347.4218     264.5094
   1427.79724     347.8200     265.5235   1427.79724     347.8200     265.5235
   1427.78198     348.4451     266.8296   1427.78198     348.4451     266.8296
   1427.76672     349.1855     267.2182   1427.76672     349.1855     267.2182
   1427.75146     350.0603     268.3672   1427.75146     350.0603     268.3672
   1427.73621     350.8883     269.3294   1427.73621     350.8883     269.3294
   1427.72095     351.5070     269.5524   1427.72095     351.5070     269.5524
   1427.70569     352.8950     271.0767   1427.70569     352.8950     271.0767
   1427.69043     353.2599     272.5883   1427.69043     353.2599     272.5883
   1427.67517     354.8916     272.8331   1427.67517     354.8916     272.8331
   1427.65991     355.3864     274.0987   1427.65991     355.3864     274.0987
   1427.64465     356.7869     275.5032   1427.64465     356.7869     275.5032
   1427.62939     357.9221     276.1534   1427.62939     357.9221     276.1534
   1427.61414     358.7863     277.6310   1427.61414     358.7863     277.6310
   1427.59888     360.7120     279.0161   1427.59888     360.7120     279.0161
   1427.58362     361.5118     280.4952   1427.58362     361.5118     280.4952
   1427.56836     362.9767     281.9120   1427.56836     362.9767     281.9120
   1427.55310     364.3296     283.3278   1427.55310     364.3296     283.3278
   1427.53784     366.6190     285.1329   1427.53784     366.6190     285.1329
   1427.52258     367.6418     285.7933   1427.52258     367.6418     285.7933
   1427.50732     369.3342     287.7589   1427.50732     369.3342     287.7589
   1427.49207     371.0699     288.7224   1427.49207     371.0699     288.7224
   1427.47681     372.1346     290.6388   1427.47681     372.1346     290.6388
   1427.46155     373.9891     292.3358   1427.46155     373.9891     292.3358
   1427.44629     376.4475     293.9604   1427.44629     376.4475     293.9604
   1427.43103     378.2035     295.9171   1427.43103     378.2035     295.9171
   1427.41577     379.1017     297.3878   1427.41577     379.1017     297.3878
   1427.40051     381.7970     299.0866   1427.40051     381.7970     299.0866
   1427.38525     383.7482     300.8424   1427.38525     383.7482     300.8424
   1427.37000     385.6221     302.0708   1427.37000     385.6221     302.0708
   1427.35474     387.1421     304.5519   1427.35474     387.1421     304.5519
   1427.33948     389.4643     306.1174   1427.33948     389.4643     306.1174
   1427.32422     391.6642     308.4243   1427.32422     391.6642     308.4243
   1427.30896     394.4227     310.2090   1427.30896     394.4227     310.2090
   1427.29370     396.4026     312.1867   1427.29370     396.4026     312.1867
   1427.27844     397.6682     313.9150   1427.27844     397.6682     313.9150
   1427.26318     399.5710     316.0846   1427.26318     399.5710     316.0846
   1427.24792     401.6561     317.2347   1427.24792     401.6561     317.2347
   1427.23267     403.8445     319.5194   1427.23267     403.8445     319.5194
   1427.21741     407.3323     321.7102   1427.21741     407.3323     321.7102
   1427.20215     409.3224     324.1809   1427.20215     409.3224     324.1809
   1427.18689     411.4236     325.6423   1427.18689     411.4236     325.6423
   1427.17163     414.4051     328.2234   1427.17163     414.4051     328.2234
   1427.15637     416.1384     331.0015   1427.15637     416.1384     331.0015
   1427.14111     418.9347     333.4196   1427.14111     418.9347     333.4196
   1427.12585     421.6213     335.3010   1427.12585     421.6213     335.3010
   1427.11060     423.6884     337.7597   1427.11060     423.6884     337.7597
   1427.09534     426.5934     339.7911   1427.09534     426.5934     339.7911
   1427.08008     428.7899     342.2954   1427.08008     428.7899     342.2954
   1427.06482     431.4583     344.3614   1427.06482     431.4583     344.3614
   1427.04956     434.4565     347.1664   1427.04956     434.4565     347.1664
   1427.03430     436.6974     349.0091   1427.03430     436.6974     349.0091
   1427.01904     439.1715     351.4595   1427.01904     439.1715     351.4595
   1427.00378     442.3672     353.7739   1427.00378     442.3672     353.7739
   1426.98853     444.1543     355.9494   1426.98853     444.1543     355.9494
   1426.97327     447.3576     358.1242   1426.97327     447.3576     358.1242
   1426.95801     450.5777     361.1791   1426.95801     450.5777     361.1791
   1426.94275     453.2454     362.9719   1426.94275     453.2454     362.9719
   1426.92749     455.7429     365.9631   1426.92749     455.7429     365.9631
   1426.91223     459.1149     368.2869   1426.91223     459.1149     368.2869
   1426.89697     461.7941     370.5269   1426.89697     461.7941     370.5269
   1426.88171     464.5351     373.4648   1426.88171     464.5351     373.4648
   1426.86646     467.3531     375.9945   1426.86646     467.3531     375.9945
   1426.85120     470.0910     378.7505   1426.85120     470.0910     378.7505
   1426.83594     473.0139     381.0655   1426.83594     473.0139     381.0655
   1426.82068     475.4567     383.7114   1426.82068     475.4567     383.7114
   1426.80542     478.3159     386.3980   1426.80542     478.3159     386.3980
   1426.79016     482.8889     388.4511   1426.79016     482.8889     388.4511
   1426.77490     484.6870     391.3541   1426.77490     484.6870     391.3541
   1426.75964     487.6548     393.6022   1426.75964     487.6548     393.6022
   1426.74438     489.7578     396.0699   1426.74438     489.7578     396.0699
   1426.72913     492.2747     399.1311   1426.72913     492.2747     399.1311
   1426.71387     495.7211     400.8972   1426.71387     495.7211     400.8972
   1426.69861     499.1635     403.4930   1426.69861     499.1635     403.4930
   1426.68335     502.1644     407.1114   1426.68335     502.1644     407.1114
   1426.66809     504.9354     409.4208   1426.66809     504.9354     409.4208
   1426.65283     507.3949     411.5254   1426.65283     507.3949     411.5254
   1426.63757     511.2428     414.1299   1426.63757     511.2428     414.1299
   1426.62231     515.9669     422.0033   1426.62231     515.9669     422.0033
   1426.60706     516.6091     419.4128   1426.60706     516.6091     419.4128
   1426.59180     519.5687     421.9795   1426.59180     519.5687     421.9795
   1426.57654     522.0420     423.5694   1426.57654     522.0420     423.5694
   1426.56128     524.9993     427.0817   1426.56128     524.9993     427.0817
   1426.54602     529.0337     429.9759   1426.54602     529.0337     429.9759
   1426.53076     530.0272     432.5266   1426.53076     530.0272     432.5266
   1426.51550     534.3637     435.0017   1426.51550     534.3637     435.0017
   1426.50024     537.7056     437.0377   1426.50024     537.7056     437.0377
   1426.48499     540.1297     439.7068   1426.48499     540.1297     439.7068
   1426.46973     543.4781     442.3784   1426.46973     543.4781     442.3784
   1426.45447     546.2453     445.1196   1426.45447     546.2453     445.1196
   1426.43921     548.3177     447.5914   1426.43921     548.3177     447.5914
   1426.42395     550.9542     449.8954   1426.42395     550.9542     449.8954
   1426.40869     554.8542     452.5507   1426.40869     554.8542     452.5507
   1426.39343     556.9277     454.8057   1426.39343     556.9277     454.8057
   1426.37817     560.6418     458.0566   1426.37817     560.6418     458.0566
   1426.36292     563.8280     459.3857   1426.36292     563.8280     459.3857
   1426.34766     567.4703     462.0248   1426.34766     567.4703     462.0248
   1426.33240     569.1953     464.7046   1426.33240     569.1953     464.7046
   1426.31714     572.2045     467.4002   1426.31714     572.2045     467.4002
   1426.30188     573.9957     469.4667   1426.30188     573.9957     469.4667
   1426.28662     576.3383     471.4622   1426.28662     576.3383     471.4622
   1426.27136     579.3275     474.2464   1426.27136     579.3275     474.2464
   1426.25610     581.9772     476.8696   1426.25610     581.9772     476.8696
   1426.24084     584.6588     479.3330   1426.24084     584.6588     479.3330
   1426.22559     587.8163     480.7692   1426.22559     587.8163     480.7692
   1426.21033     590.7075     484.1201   1426.21033     590.7075     484.1201
   1426.19507     592.9589     485.6551   1426.19507     592.9589     485.6551
   1426.17981     595.5645     489.1071   1426.17981     595.5645     489.1071
   1426.16455     597.7588     491.3035   1426.16455     597.7588     491.3035
   1426.14929     600.5991     493.4270   1426.14929     600.5991     493.4270
   1426.13403     603.3790     495.2153   1426.13403     603.3790     495.2153
   1426.11877     605.2453     497.8693   1426.11877     605.2453     497.8693
   1426.10352     608.1884     500.5093   1426.10352     608.1884     500.5093
   1426.08826     610.8325     501.8370   1426.08826     610.8325     501.8370
   1426.07300     613.4028     503.8074   1426.07300     613.4028     503.8074
   1426.05774     615.3344     506.9524   1426.05774     615.3344     506.9524
   1426.04248     617.3302     508.3671   1426.04248     617.3302     508.3671
   1426.02722     619.8412     511.4436   1426.02722     619.8412     511.4436
   1426.01196     621.6648     513.1608   1426.01196     621.6648     513.1608
   1425.99670     623.5715     514.9591   1425.99670     623.5715     514.9591
   1425.98145     626.8290     516.5309   1425.98145     626.8290     516.5309
   1425.96619     629.1140     519.0516   1425.96619     629.1140     519.0516
   1425.95093     631.4411     521.5518   1425.95093     631.4411     521.5518
   1425.93567     634.0400     523.6819   1425.93567     634.0400     523.6819
   1425.92041     635.7142     525.8691   1425.92041     635.7142     525.8691
   1425.90515     638.1801     526.7351   1425.90515     638.1801     526.7351
   1425.88989     639.5673     529.2587   1425.88989     639.5673     529.2587
   1425.87463     640.7825     530.9105   1425.87463     640.7825     530.9105
   1425.85938     643.5377     532.4660   1425.85938     643.5377     532.4660
   1425.84412     646.0914     534.3186   1425.84412     646.0914     534.3186
   1425.82886     649.0062     536.4419   1425.82886     649.0062     536.4419
   1425.81360     650.2812     537.7770   1425.81360     650.2812     537.7770
   1425.79834     651.5184     539.8530   1425.79834     651.5184     539.8530
   1425.78308     654.4864     541.9109   1425.78308     654.4864     541.9109
   1425.76782     656.2786     544.2322   1425.76782     656.2786     544.2322
   1425.75256     657.9261     545.4128   1425.75256     657.9261     545.4128
   1425.73730     659.5165     547.2308   1425.73730     659.5165     547.2308
   1425.72205     661.8365     548.6469   1425.72205     661.8365     548.6469
   1425.70679     662.3363     550.3038   1425.70679     662.3363     550.3038
   1425.69153     665.1220     553.4169   1425.69153     665.1220     553.4169
   1425.67627     666.8064     554.2318   1425.67627     666.8064     554.2318
   1425.66101     668.8253     555.3510   1425.66101     668.8253     555.3510
   1425.64575     669.1204     556.7963   1425.64575     669.1204     556.7963
   1425.63049     671.6558     559.7819   1425.63049     671.6558     559.7819
   1425.61523     673.0137     559.5322   1425.61523     673.0137     559.5322
   1425.59998     674.4942     561.7228   1425.59998     674.4942     561.7228
   1425.58472     676.7924     562.4211   1425.58472     676.7924     562.4211
   1425.56946     677.1353     564.0657   1425.56946     677.1353     564.0657
   1425.55420     678.7665     566.6293   1425.55420     678.7665     566.6293
   1425.53894     680.8795     567.0083   1425.53894     680.8795     567.0083
   1425.52368     681.8359     569.4806   1425.52368     681.8359     569.4806
   1425.50842     683.1681     569.4811   1425.50842     683.1681     569.4811
   1425.49316     684.6921     571.3491   1425.49316     684.6921     571.3491
   1425.47791     686.2812     571.9793   1425.47791     686.2812     571.9793
   1425.46265     687.3152     574.1710   1425.46265     687.3152     574.1710
   1425.44739     689.2437     575.4078   1425.44739     689.2437     575.4078
   1425.43213     688.9552     576.5979   1425.43213     688.9552     576.5979
   1425.41687     689.3262     578.2054   1425.41687     689.3262     578.2054
   1425.40161     690.9433     577.6758   1425.40161     690.9433     577.6758
   1425.38635     693.4485     581.1410   1425.38635     693.4485     581.1410
   1425.37109     693.5736     581.4609   1425.37109     693.5736     581.4609
   1425.35583     694.7916     582.1942   1425.35583     694.7916     582.1942
   1425.34058     695.8100     582.7534   1425.34058     695.8100     582.7534
   1425.32532     697.3202     584.1494   1425.32532     697.3202     584.1494
   1425.31006     698.9465     585.1945   1425.31006     698.9465     585.1945
   1425.29480     699.3544     586.6350   1425.29480     699.3544     586.6350
   1425.27954     699.7967     587.2546   1425.27954     699.7967     587.2546
   1425.26428     701.1639     589.0708   1425.26428     701.1639     589.0708
   1425.24902     702.5931     589.5391   1425.24902     702.5931     589.5391
   1425.23376     702.5778     590.6072   1425.23376     702.5778     590.6072
   1425.21851     704.1775     591.3517   1425.21851     704.1775     591.3517
   1425.20325     705.3516     592.0684   1425.20325     705.3516     592.0684
   1425.18799     704.4392     593.5855   1425.18799     704.4392     593.5855
   1425.17273     705.3046     593.7328   1425.17273     705.3046     593.7328
   1425.15747     707.9304     595.7507   1425.15747     707.9304     595.7507
   1425.14221     708.7332     595.9321   1425.14221     708.7332     595.9321
   1425.12695     708.6176     596.3054   1425.12695     708.6176     596.3054
   1425.11169     709.0408     597.2598   1425.11169     709.0408     597.2598
   1425.09644     709.7143     597.6532   1425.09644     709.7143     597.6532
   1425.08118     710.0587     598.0469   1425.08118     710.0587     598.0469
   1425.06592     711.2675     599.9218   1425.06592     711.2675     599.9218
   1425.05066     711.6353     600.4233   1425.05066     711.6353     600.4233
   1425.03540     712.3489     600.0669   1425.03540     712.3489     600.0669
   1425.02014     712.3112     601.9473   1425.02014     712.3112     601.9473
   1425.00488     714.2262     602.5043   1425.00488     714.2262     602.5043
   1424.98962     713.6913     602.8439   1424.98962     713.6913     602.8439
   1424.97437     713.5778     603.2408   1424.97437     713.5778     603.2408
   1424.95911     715.0554     602.6496   1424.95911     715.0554     602.6496
   1424.94385     714.2807     604.1312   1424.94385     714.2807     604.1312
   1424.92859     715.2574     603.8248   1424.92859     715.2574     603.8248
   1424.91333     715.5000     604.3981   1424.91333     715.5000     604.3981
   1424.89807     715.0474     605.2892   1424.89807     715.0474     605.2892
   1424.88281     715.1251     606.2081   1424.88281     715.1251     606.2081
   1424.86755     717.5164     606.7870   1424.86755     717.5164     606.7870
   1424.85229     717.3952     606.8345   1424.85229     717.3952     606.8345
   1424.83704     716.4323     606.3595   1424.83704     716.4323     606.3595
   1424.82178     716.8842     608.2621   1424.82178     716.8842     608.2621
   1424.80652     716.3314     606.9340   1424.80652     716.3314     606.9340
   1424.79126     718.1262     607.8293   1424.79126     718.1262     607.8293
   1424.77600     718.0308     607.7322   1424.77600     718.0308     607.7322
   1424.76074     715.4104     607.0643   1424.76074     715.4104     607.0643
   1424.74548     717.8647     609.4228   1424.74548     717.8647     609.4228
   1424.73022     717.6524     608.4518   1424.73022     717.6524     608.4518
   1424.71497     717.9875     610.2228   1424.71497     717.9875     610.2228
   1424.69971     718.4158     608.9871   1424.69971     718.4158     608.9871
   1424.68445     718.6289     609.9151   1424.68445     718.6289     609.9151
   1424.66919     718.2585     610.4452   1424.66919     718.2585     610.4452
   1424.65393     718.5720     610.1124   1424.65393     718.5720     610.1124
   1424.63867     718.4730     608.8395   1424.63867     718.4730     608.8395
   1424.62341     718.3079     610.5994   1424.62341     718.3079     610.5994
   1424.60815     719.4533     610.0739   1424.60815     719.4533     610.0739
   1424.59290     719.6290     610.5435   1424.59290     719.6290     610.5435
   1424.57764     718.3197     610.4285   1424.57764     718.3197     610.4285
   1424.56238     720.1707     608.9457   1424.56238     720.1707     608.9457
   1424.54712     719.6688     609.0950   1424.54712     719.6688     609.0950
   1424.53186     718.2587     609.4475   1424.53186     718.2587     609.4475
   1424.51660     719.3654     609.1299   1424.51660     719.3654     609.1299
   1424.50134     719.6755     607.9769   1424.50134     719.6755     607.9769
   1424.48608     718.0690     609.2593   1424.48608     718.0690     609.2593
   1424.47083     718.7751     609.9943   1424.47083     718.7751     609.9943
   1424.45557     717.5518     609.1561   1424.45557     717.5518     609.1561
   1424.44031     717.5266     609.8483   1424.44031     717.5266     609.8483
   1424.42505     716.9569     608.0773   1424.42505     716.9569     608.0773
   1424.40979     717.1584     608.5453   1424.40979     717.1584     608.5453
   1424.39453     717.6216     608.5349   1424.39453     717.6216     608.5349
   1424.37927     717.4362     608.3597   1424.37927     717.4362     608.3597
   1424.36401     717.9358     608.3065   1424.36401     717.9358     608.3065
   1424.34875     715.9154     606.9288   1424.34875     715.9154     606.9288
   1424.33350     716.3625     607.8057   1424.33350     716.3625     607.8057
   1424.31824     716.7827     607.8391   1424.31824     716.7827     607.8391
   1424.30298     715.6144     607.0671   1424.30298     715.6144     607.0671
   1424.28772     716.4796     607.0967   1424.28772     716.4796     607.0967
   1424.27246     715.0947     605.9789   1424.27246     715.0947     605.9789
   1424.25720     715.5990     605.6539   1424.25720     715.5990     605.6539
   1424.24194     716.2225     605.0394   1424.24194     716.2225     605.0394
   1424.22668     715.9288     606.3480   1424.22668     715.9288     606.3480
   1424.21143     714.5765     604.8026   1424.21143     714.5765     604.8026
   1424.19617     714.2106     605.5023   1424.19617     714.2106     605.5023
   1424.18091     714.0474     603.5082   1424.18091     714.0474     603.5082
   1424.16565     715.1898     603.6541   1424.16565     715.1898     603.6541
