#     FILENAME=!Skynet_57528_lach-cc-75_20509_20921.cyb.fits
#     BASENAME=Skynet_57528_lach-cc-75_20509_20921
#     SRC_NAME=lach-cc-75
#     OBSERVER=ccmadison16_9505
#     DATE_OBS=2016-05-20T15:51:41.750
#        OBSID=20509
#      SCANNUM=20921
#          MJD=57528.6619
#          UTC=57190
#     SCANTYPE=track
#     DATAMODE=HIRES
#     TUNEFREQ=1420.0000
# Actual_FREQ1=1420.0000
# Actual_FREQ2=1420.0000
#    LO1Tuning=6870.000
#     RFFILTER=1355_1435
#        OBSBW=-15.6250
#        NCHAN=1024 
#        FOCUS=37.0489
#           RA=20:20:53.70
#          DEC=36:36:21.55
#      RA(hrs)=20.348300
#     DEC(deg)=36.606000
#    AZIM(deg)=300.392
#    ELEV(deg)=20.691
#     IFattens=11.00, 10.00
#      WARNING=None
#    TCAL_XL1=7.9635
#    TCAL_YR1=9.1340
#    TCAL_XL2=7.9635
#    TCAL_YR2=9.1340
#     TRX_XL1=11.7060
#     TRX_YR1=11.7060
#     TRX_XL2=11.7060
#     TRX_YR2=11.7060
#        TAVE=1.0000
#Freq1(MHz)          XL1          YR1  Freq2(MHz)          XL2          YR2 

   1427.81250     335.2259     279.7243   1427.81250     335.2259     279.7243
   1427.79724     335.6388     280.7449   1427.79724     335.6388     280.7449
   1427.78198     336.0201     281.2513   1427.78198     336.0201     281.2513
   1427.76672     336.7365     282.0630   1427.76672     336.7365     282.0630
   1427.75146     337.6083     282.9681   1427.75146     337.6083     282.9681
   1427.73621     338.2267     283.3810   1427.73621     338.2267     283.3810
   1427.72095     339.0353     284.4753   1427.72095     339.0353     284.4753
   1427.70569     339.6697     285.1754   1427.70569     339.6697     285.1754
   1427.69043     340.9966     286.1558   1427.69043     340.9966     286.1558
   1427.67517     341.3243     287.2325   1427.67517     341.3243     287.2325
   1427.65991     342.8812     288.3986   1427.65991     342.8812     288.3986
   1427.64465     343.3159     289.4331   1427.64465     343.3159     289.4331
   1427.62939     344.6824     290.4894   1427.62939     344.6824     290.4894
   1427.61414     345.6289     291.7728   1427.61414     345.6289     291.7728
   1427.59888     347.1475     292.8787   1427.59888     347.1475     292.8787
   1427.58362     348.2422     293.6816   1427.58362     348.2422     293.6816
   1427.56836     349.3595     295.1823   1427.56836     349.3595     295.1823
   1427.55310     350.5492     296.7398   1427.55310     350.5492     296.7398
   1427.53784     352.3381     298.0243   1427.53784     352.3381     298.0243
   1427.52258     353.3655     299.1608   1427.52258     353.3655     299.1608
   1427.50732     355.0242     300.8494   1427.50732     355.0242     300.8494
   1427.49207     356.5431     301.9249   1427.49207     356.5431     301.9249
   1427.47681     357.8291     303.2634   1427.47681     357.8291     303.2634
   1427.46155     359.8146     305.1229   1427.46155     359.8146     305.1229
   1427.44629     361.2251     306.5435   1427.44629     361.2251     306.5435
   1427.43103     363.1007     308.0358   1427.43103     363.1007     308.0358
   1427.41577     364.7244     309.4893   1427.41577     364.7244     309.4893
   1427.40051     366.6211     311.8178   1427.40051     366.6211     311.8178
   1427.38525     368.2025     313.9143   1427.38525     368.2025     313.9143
   1427.37000     369.7370     314.9730   1427.37000     369.7370     314.9730
   1427.35474     371.6003     316.8064   1427.35474     371.6003     316.8064
   1427.33948     373.1337     318.7004   1427.33948     373.1337     318.7004
   1427.32422     375.3225     320.4782   1427.32422     375.3225     320.4782
   1427.30896     377.0327     321.7823   1427.30896     377.0327     321.7823
   1427.29370     379.6208     324.2731   1427.29370     379.6208     324.2731
   1427.27844     381.5492     325.8569   1427.27844     381.5492     325.8569
   1427.26318     383.9697     327.7991   1427.26318     383.9697     327.7991
   1427.24792     385.4397     330.3122   1427.24792     385.4397     330.3122
   1427.23267     387.3001     331.7257   1427.23267     387.3001     331.7257
   1427.21741     390.0147     334.1007   1427.21741     390.0147     334.1007
   1427.20215     392.0013     336.0319   1427.20215     392.0013     336.0319
   1427.18689     394.6561     337.9274   1427.18689     394.6561     337.9274
   1427.17163     396.1763     339.9522   1427.17163     396.1763     339.9522
   1427.15637     399.1496     342.4774   1427.15637     399.1496     342.4774
   1427.14111     400.6854     344.8676   1427.14111     400.6854     344.8676
   1427.12585     403.8274     346.8362   1427.12585     403.8274     346.8362
   1427.11060     405.7096     348.4359   1427.11060     405.7096     348.4359
   1427.09534     408.3895     350.3618   1427.09534     408.3895     350.3618
   1427.08008     410.9344     353.0463   1427.08008     410.9344     353.0463
   1427.06482     412.5671     355.0792   1427.06482     412.5671     355.0792
   1427.04956     415.4006     358.0245   1427.04956     415.4006     358.0245
   1427.03430     418.0477     359.5951   1427.03430     418.0477     359.5951
   1427.01904     420.1493     362.0765   1427.01904     420.1493     362.0765
   1427.00378     423.0867     363.7825   1427.00378     423.0867     363.7825
   1426.98853     425.6069     366.4996   1426.98853     425.6069     366.4996
   1426.97327     428.0166     368.8072   1426.97327     428.0166     368.8072
   1426.95801     430.9247     371.3214   1426.95801     430.9247     371.3214
   1426.94275     433.4880     373.8753   1426.94275     433.4880     373.8753
   1426.92749     435.6470     375.4934   1426.92749     435.6470     375.4934
   1426.91223     438.6711     378.1504   1426.91223     438.6711     378.1504
   1426.89697     440.9608     380.2324   1426.89697     440.9608     380.2324
   1426.88171     443.4040     383.1387   1426.88171     443.4040     383.1387
   1426.86646     445.8683     384.6705   1426.86646     445.8683     384.6705
   1426.85120     448.3069     387.0829   1426.85120     448.3069     387.0829
   1426.83594     451.2431     389.9446   1426.83594     451.2431     389.9446
   1426.82068     454.4998     391.8755   1426.82068     454.4998     391.8755
   1426.80542     456.9059     394.7206   1426.80542     456.9059     394.7206
   1426.79016     459.4043     397.7333   1426.79016     459.4043     397.7333
   1426.77490     462.6990     399.6034   1426.77490     462.6990     399.6034
   1426.75964     465.8332     401.8495   1426.75964     465.8332     401.8495
   1426.74438     467.5945     404.3991   1426.74438     467.5945     404.3991
   1426.72913     471.2009     406.4796   1426.72913     471.2009     406.4796
   1426.71387     472.6636     408.3289   1426.71387     472.6636     408.3289
   1426.69861     476.0755     410.8286   1426.69861     476.0755     410.8286
   1426.68335     479.1577     413.5416   1426.68335     479.1577     413.5416
   1426.66809     481.4812     415.6060   1426.66809     481.4812     415.6060
   1426.65283     483.3472     417.4209   1426.65283     483.3472     417.4209
   1426.63757     488.0101     420.9739   1426.63757     488.0101     420.9739
   1426.62231     492.2313     423.2465   1426.62231     492.2313     423.2465
   1426.60706     493.2972     425.2210   1426.60706     493.2972     425.2210
   1426.59180     496.0249     427.1216   1426.59180     496.0249     427.1216
   1426.57654     497.3938     429.3145   1426.57654     497.3938     429.3145
   1426.56128     500.5295     431.4010   1426.56128     500.5295     431.4010
   1426.54602     503.2552     434.1276   1426.54602     503.2552     434.1276
   1426.53076     506.1261     435.6965   1426.53076     506.1261     435.6965
   1426.51550     508.2282     438.2578   1426.51550     508.2282     438.2578
   1426.50024     511.4391     439.9957   1426.50024     511.4391     439.9957
   1426.48499     513.9750     442.9666   1426.48499     513.9750     442.9666
   1426.46973     516.6153     444.3913   1426.46973     516.6153     444.3913
   1426.45447     519.6165     447.2742   1426.45447     519.6165     447.2742
   1426.43921     521.0380     450.2395   1426.43921     521.0380     450.2395
   1426.42395     524.3127     451.7154   1426.42395     524.3127     451.7154
   1426.40869     527.2885     453.6579   1426.40869     527.2885     453.6579
   1426.39343     530.2886     454.9331   1426.39343     530.2886     454.9331
   1426.37817     532.8027     457.7196   1426.37817     532.8027     457.7196
   1426.36292     534.3680     459.5473   1426.36292     534.3680     459.5473
   1426.34766     537.5224     462.0906   1426.34766     537.5224     462.0906
   1426.33240     539.1414     463.3130   1426.33240     539.1414     463.3130
   1426.31714     543.2527     465.5343   1426.31714     543.2527     465.5343
   1426.30188     545.4076     467.8025   1426.30188     545.4076     467.8025
   1426.28662     548.0082     469.7681   1426.28662     548.0082     469.7681
   1426.27136     550.4327     471.0400   1426.27136     550.4327     471.0400
   1426.25610     551.9561     473.4641   1426.25610     551.9561     473.4641
   1426.24084     555.4792     475.7958   1426.24084     555.4792     475.7958
   1426.22559     557.8079     477.4295   1426.22559     557.8079     477.4295
   1426.21033     560.1585     478.8080   1426.21033     560.1585     478.8080
   1426.19507     561.9172     480.9194   1426.19507     561.9172     480.9194
   1426.17981     565.4709     482.5393   1426.17981     565.4709     482.5393
   1426.16455     568.3751     484.1552   1426.16455     568.3751     484.1552
   1426.14929     569.7314     486.1586   1426.14929     569.7314     486.1586
   1426.13403     571.6002     488.4361   1426.13403     571.6002     488.4361
   1426.11877     573.4048     489.7744   1426.11877     573.4048     489.7744
   1426.10352     575.8750     491.6724   1426.10352     575.8750     491.6724
   1426.08826     579.1808     493.1731   1426.08826     579.1808     493.1731
   1426.07300     581.1213     494.8755   1426.07300     581.1213     494.8755
   1426.05774     582.6837     496.6598   1426.05774     582.6837     496.6598
   1426.04248     586.0863     498.2863   1426.04248     586.0863     498.2863
   1426.02722     586.8880     500.3599   1426.02722     586.8880     500.3599
   1426.01196     588.8387     501.6555   1426.01196     588.8387     501.6555
   1425.99670     591.5493     502.2357   1425.99670     591.5493     502.2357
   1425.98145     593.8936     505.0838   1425.98145     593.8936     505.0838
   1425.96619     595.7872     506.0971   1425.96619     595.7872     506.0971
   1425.95093     596.9689     508.0259   1425.95093     596.9689     508.0259
   1425.93567     600.2104     508.8016   1425.93567     600.2104     508.8016
   1425.92041     601.6562     510.5555   1425.92041     601.6562     510.5555
   1425.90515     603.4052     511.4388   1425.90515     603.4052     511.4388
   1425.88989     604.5995     513.1585   1425.88989     604.5995     513.1585
   1425.87463     607.4189     514.3894   1425.87463     607.4189     514.3894
   1425.85938     609.3177     516.2294   1425.85938     609.3177     516.2294
   1425.84412     611.9646     517.6221   1425.84412     611.9646     517.6221
   1425.82886     612.7988     518.0439   1425.82886     612.7988     518.0439
   1425.81360     615.1334     520.2783   1425.81360     615.1334     520.2783
   1425.79834     616.6021     520.8296   1425.79834     616.6021     520.8296
   1425.78308     618.2949     523.2307   1425.78308     618.2949     523.2307
   1425.76782     619.8957     524.2014   1425.76782     619.8957     524.2014
   1425.75256     622.0599     524.7515   1425.75256     622.0599     524.7515
   1425.73730     624.2335     526.5803   1425.73730     624.2335     526.5803
   1425.72205     624.6433     528.3312   1425.72205     624.6433     528.3312
   1425.70679     625.8802     528.6835   1425.70679     625.8802     528.6835
   1425.69153     628.3056     530.1393   1425.69153     628.3056     530.1393
   1425.67627     630.1420     530.7965   1425.67627     630.1420     530.7965
   1425.66101     630.8662     531.7953   1425.66101     630.8662     531.7953
   1425.64575     632.5927     532.9183   1425.64575     632.5927     532.9183
   1425.63049     633.6116     534.0232   1425.63049     633.6116     534.0232
   1425.61523     635.4637     535.9980   1425.61523     635.4637     535.9980
   1425.59998     635.8561     536.9660   1425.59998     635.8561     536.9660
   1425.58472     638.2611     537.2087   1425.58472     638.2611     537.2087
   1425.56946     638.9143     539.0560   1425.56946     638.9143     539.0560
   1425.55420     639.6051     540.1459   1425.55420     639.6051     540.1459
   1425.53894     641.9027     540.8554   1425.53894     641.9027     540.8554
   1425.52368     643.6192     542.2015   1425.52368     643.6192     542.2015
   1425.50842     645.1920     542.7195   1425.50842     645.1920     542.7195
   1425.49316     644.9543     543.8275   1425.49316     644.9543     543.8275
   1425.47791     647.4283     544.5137   1425.47791     647.4283     544.5137
   1425.46265     647.1692     545.7917   1425.46265     647.1692     545.7917
   1425.44739     649.2863     546.8632   1425.44739     649.2863     546.8632
   1425.43213     649.1709     548.4884   1425.43213     649.1709     548.4884
   1425.41687     652.3340     549.5067   1425.41687     652.3340     549.5067
   1425.40161     652.6231     550.1647   1425.40161     652.6231     550.1647
   1425.38635     652.8997     550.3474   1425.38635     652.8997     550.3474
   1425.37109     653.8285     551.0857   1425.37109     653.8285     551.0857
   1425.35583     654.9636     552.5995   1425.35583     654.9636     552.5995
   1425.34058     655.8066     552.4958   1425.34058     655.8066     552.4958
   1425.32532     657.3065     554.5363   1425.32532     657.3065     554.5363
   1425.31006     658.4787     554.6761   1425.31006     658.4787     554.6761
   1425.29480     659.2059     556.5867   1425.29480     659.2059     556.5867
   1425.27954     660.4401     557.0929   1425.27954     660.4401     557.0929
   1425.26428     660.4691     557.6074   1425.26428     660.4691     557.6074
   1425.24902     661.2143     557.6624   1425.24902     661.2143     557.6624
   1425.23376     662.4600     558.8820   1425.23376     662.4600     558.8820
   1425.21851     662.9646     559.2262   1425.21851     662.9646     559.2262
   1425.20325     663.7991     560.5868   1425.20325     663.7991     560.5868
   1425.18799     663.4235     561.0950   1425.18799     663.4235     561.0950
   1425.17273     665.3001     561.4583   1425.17273     665.3001     561.4583
   1425.15747     666.0707     563.5054   1425.15747     666.0707     563.5054
   1425.14221     667.6605     564.0673   1425.14221     667.6605     564.0673
   1425.12695     666.6769     564.5555   1425.12695     666.6769     564.5555
   1425.11169     667.7366     565.1411   1425.11169     667.7366     565.1411
   1425.09644     668.6103     566.2210   1425.09644     668.6103     566.2210
   1425.08118     668.4672     566.0902   1425.08118     668.4672     566.0902
   1425.06592     669.3838     566.5156   1425.06592     669.3838     566.5156
   1425.05066     669.0890     568.7122   1425.05066     669.0890     568.7122
   1425.03540     671.0557     568.8903   1425.03540     671.0557     568.8903
   1425.02014     671.2788     569.0742   1425.02014     671.2788     569.0742
   1425.00488     670.1495     570.2997   1425.00488     670.1495     570.2997
   1424.98962     671.3100     571.2807   1424.98962     671.3100     571.2807
   1424.97437     671.7153     572.0644   1424.97437     671.7153     572.0644
   1424.95911     672.2096     573.1498   1424.95911     672.2096     573.1498
   1424.94385     672.2097     571.6190   1424.94385     672.2097     571.6190
   1424.92859     672.9391     574.7051   1424.92859     672.9391     574.7051
   1424.91333     674.9720     574.1709   1424.91333     674.9720     574.1709
   1424.89807     673.5430     574.9771   1424.89807     673.5430     574.9771
   1424.88281     675.4470     575.4736   1424.88281     675.4470     575.4736
   1424.86755     674.9012     576.1396   1424.86755     674.9012     576.1396
   1424.85229     675.7506     576.7377   1424.85229     675.7506     576.7377
   1424.83704     675.3489     577.8613   1424.83704     675.3489     577.8613
   1424.82178     674.8895     578.8867   1424.82178     674.8895     578.8867
   1424.80652     675.7983     579.4714   1424.80652     675.7983     579.4714
   1424.79126     675.4155     580.4160   1424.79126     675.4155     580.4160
   1424.77600     675.5085     579.3315   1424.77600     675.5085     579.3315
   1424.76074     676.2342     581.1362   1424.76074     676.2342     581.1362
   1424.74548     676.8834     580.6614   1424.74548     676.8834     580.6614
   1424.73022     676.4137     583.3737   1424.73022     676.4137     583.3737
   1424.71497     676.7981     582.0781   1424.71497     676.7981     582.0781
   1424.69971     676.6140     583.2235   1424.69971     676.6140     583.2235
   1424.68445     676.4395     583.9960   1424.68445     676.4395     583.9960
   1424.66919     676.3063     584.7119   1424.66919     676.3063     584.7119
   1424.65393     676.0236     585.1108   1424.65393     676.0236     585.1108
   1424.63867     677.1748     585.7183   1424.63867     677.1748     585.7183
   1424.62341     678.1992     587.2789   1424.62341     678.1992     587.2789
   1424.60815     676.7622     587.5977   1424.60815     676.7622     587.5977
   1424.59290     677.6652     588.0649   1424.59290     677.6652     588.0649
   1424.57764     677.0513     588.9844   1424.57764     677.0513     588.9844
   1424.56238     676.6990     589.6400   1424.56238     676.6990     589.6400
   1424.54712     677.7972     590.1840   1424.54712     677.7972     590.1840
   1424.53186     677.3855     591.4543   1424.53186     677.3855     591.4543
   1424.51660     677.6467     591.0342   1424.51660     677.6467     591.0342
   1424.50134     677.4460     591.8639   1424.50134     677.4460     591.8639
   1424.48608     677.4855     592.4297   1424.48608     677.4855     592.4297
   1424.47083     677.4302     592.5432   1424.47083     677.4302     592.5432
   1424.45557     679.4448     594.0588   1424.45557     679.4448     594.0588
   1424.44031     677.4705     594.3167   1424.44031     677.4705     594.3167
   1424.42505     677.4008     594.5991   1424.42505     677.4008     594.5991
   1424.40979     677.9667     596.2316   1424.40979     677.9667     596.2316
   1424.39453     678.0530     596.4983   1424.39453     678.0530     596.4983
   1424.37927     678.3129     596.9691   1424.37927     678.3129     596.9691
   1424.36401     677.0240     597.1060   1424.36401     677.0240     597.1060
   1424.34875     678.0651     597.5797   1424.34875     678.0651     597.5797
   1424.33350     677.5553     599.2779   1424.33350     677.5553     599.2779
   1424.31824     676.3574     598.8486   1424.31824     676.3574     598.8486
   1424.30298     677.2689     600.2262   1424.30298     677.2689     600.2262
   1424.28772     676.4598     600.9185   1424.28772     676.4598     600.9185
   1424.27246     678.0196     601.9925   1424.27246     678.0196     601.9925
   1424.25720     678.1553     603.0016   1424.25720     678.1553     603.0016
   1424.24194     677.5870     603.3666   1424.24194     677.5870     603.3666
   1424.22668     677.5873     604.5225   1424.22668     677.5873     604.5225
   1424.21143     677.1510     604.9813   1424.21143     677.1510     604.9813
   1424.19617     677.3519     604.8740   1424.19617     677.3519     604.8740
   1424.18091     678.1106     605.1240   1424.18091     678.1106     605.1240
   1424.16565     676.2119     606.5544   1424.16565     676.2119     606.5544
