#     FILENAME=!Skynet_57528_lach-hhg-175_20561_20998.cyb.fits
#     BASENAME=Skynet_57528_lach-hhg-175_20561_20998
#     SRC_NAME=lach-hhg-175
#     OBSERVER=hhgmadison16_9500
#     DATE_OBS=2016-05-20T18:30:08.000
#        OBSID=20561
#      SCANNUM=20998
#          MJD=57528.7720
#          UTC=66696
#     SCANTYPE=track
#     DATAMODE=HIRES
#     TUNEFREQ=1420.0000
# Actual_FREQ1=1420.0000
# Actual_FREQ2=1420.0000
#    LO1Tuning=6870.000
#     RFFILTER=1355_1435
#        OBSBW=-15.6250
#        NCHAN=1024 
#        FOCUS=37.0709
#           RA=05:33:08.36
#          DEC=33:10:03.89
#      RA(hrs)=5.552300
#     DEC(deg)=33.167700
#    AZIM(deg)=130.338
#    ELEV(deg)=82.165
#     IFattens=10.00, 9.00
#      WARNING=None
#    TCAL_XL1=7.9635
#    TCAL_YR1=9.1340
#    TCAL_XL2=7.9635
#    TCAL_YR2=9.1340
#     TRX_XL1=11.7060
#     TRX_YR1=11.7060
#     TRX_XL2=11.7060
#     TRX_YR2=11.7060
#        TAVE=1.0000
#Freq1(MHz)          XL1          YR1  Freq2(MHz)          XL2          YR2 

   1427.81250     380.5395     343.6141   1427.81250     380.5395     343.6141
   1427.79724     381.2764     345.9149   1427.79724     381.2764     345.9149
   1427.78198     380.7744     347.4613   1427.78198     380.7744     347.4613
   1427.76672     382.8212     349.0146   1427.76672     382.8212     349.0146
   1427.75146     382.9140     350.6479   1427.75146     382.9140     350.6479
   1427.73621     383.9680     352.9641   1427.73621     383.9680     352.9641
   1427.72095     385.2066     355.1620   1427.72095     385.2066     355.1620
   1427.70569     385.7116     356.6616   1427.70569     385.7116     356.6616
   1427.69043     387.6621     358.8036   1427.69043     387.6621     358.8036
   1427.67517     388.2909     360.8875   1427.67517     388.2909     360.8875
   1427.65991     389.4286     363.2305   1427.65991     389.4286     363.2305
   1427.64465     389.9810     365.5163   1427.64465     389.9810     365.5163
   1427.62939     391.9535     367.2511   1427.62939     391.9535     367.2511
   1427.61414     392.6052     369.9640   1427.61414     392.6052     369.9640
   1427.59888     394.0060     371.6304   1427.59888     394.0060     371.6304
   1427.58362     395.3112     374.2496   1427.58362     395.3112     374.2496
   1427.56836     396.7074     376.7235   1427.56836     396.7074     376.7235
   1427.55310     398.2496     378.8075   1427.55310     398.2496     378.8075
   1427.53784     399.8029     381.1698   1427.53784     399.8029     381.1698
   1427.52258     401.6299     383.9594   1427.52258     401.6299     383.9594
   1427.50732     403.2643     386.8376   1427.50732     403.2643     386.8376
   1427.49207     404.6756     389.4417   1427.49207     404.6756     389.4417
   1427.47681     406.4033     391.6348   1427.47681     406.4033     391.6348
   1427.46155     408.4146     394.9930   1427.46155     408.4146     394.9930
   1427.44629     410.1294     396.4186   1427.44629     410.1294     396.4186
   1427.43103     411.5260     399.5249   1427.43103     411.5260     399.5249
   1427.41577     413.8299     402.3076   1427.41577     413.8299     402.3076
   1427.40051     415.7955     405.2673   1427.40051     415.7955     405.2673
   1427.38525     417.6816     407.3873   1427.38525     417.6816     407.3873
   1427.37000     419.6221     410.7816   1427.37000     419.6221     410.7816
   1427.35474     421.9174     413.8287   1427.35474     421.9174     413.8287
   1427.33948     422.9235     416.0851   1427.33948     422.9235     416.0851
   1427.32422     426.1923     419.6149   1427.32422     426.1923     419.6149
   1427.30896     428.1161     422.1324   1427.30896     428.1161     422.1324
   1427.29370     430.6527     425.1210   1427.29370     430.6527     425.1210
   1427.27844     433.0510     427.6301   1427.27844     433.0510     427.6301
   1427.26318     434.7962     431.2474   1427.26318     434.7962     431.2474
   1427.24792     437.1298     434.2612   1427.24792     437.1298     434.2612
   1427.23267     439.7759     437.5808   1427.23267     439.7759     437.5808
   1427.21741     442.5406     440.3900   1427.21741     442.5406     440.3900
   1427.20215     444.7531     443.7496   1427.20215     444.7531     443.7496
   1427.18689     447.4250     446.8129   1427.18689     447.4250     446.8129
   1427.17163     449.8387     449.7289   1427.17163     449.8387     449.7289
   1427.15637     452.0088     451.7755   1427.15637     452.0088     451.7755
   1427.14111     454.4683     455.3560   1427.14111     454.4683     455.3560
   1427.12585     457.4090     458.5536   1427.12585     457.4090     458.5536
   1427.11060     460.0878     461.1973   1427.11060     460.0878     461.1973
   1427.09534     462.5819     464.3007   1427.09534     462.5819     464.3007
   1427.08008     465.7043     467.7723   1427.08008     465.7043     467.7723
   1427.06482     468.0991     471.1883   1427.06482     468.0991     471.1883
   1427.04956     470.8793     473.8331   1427.04956     470.8793     473.8331
   1427.03430     473.9782     477.4017   1427.03430     473.9782     477.4017
   1427.01904     476.3565     480.5209   1427.01904     476.3565     480.5209
   1427.00378     478.8258     483.0700   1427.00378     478.8258     483.0700
   1426.98853     482.5199     485.8333   1426.98853     482.5199     485.8333
   1426.97327     485.2253     489.1885   1426.97327     485.2253     489.1885
   1426.95801     488.3803     492.5433   1426.95801     488.3803     492.5433
   1426.94275     490.7447     495.2840   1426.94275     490.7447     495.2840
   1426.92749     493.0583     499.0839   1426.92749     493.0583     499.0839
   1426.91223     496.7169     501.3881   1426.91223     496.7169     501.3881
   1426.89697     499.9889     504.2001   1426.89697     499.9889     504.2001
   1426.88171     503.4426     507.5912   1426.88171     503.4426     507.5912
   1426.86646     506.2356     510.3686   1426.86646     506.2356     510.3686
   1426.85120     509.2330     513.6012   1426.85120     509.2330     513.6012
   1426.83594     511.1205     515.3085   1426.83594     511.1205     515.3085
   1426.82068     515.0841     518.1605   1426.82068     515.0841     518.1605
   1426.80542     517.6671     521.6473   1426.80542     517.6671     521.6473
   1426.79016     520.3158     524.3708   1426.79016     520.3158     524.3708
   1426.77490     524.5700     527.7602   1426.77490     524.5700     527.7602
   1426.75964     527.5624     530.0811   1426.75964     527.5624     530.0811
   1426.74438     529.8853     533.9473   1426.74438     529.8853     533.9473
   1426.72913     533.0883     534.9199   1426.72913     533.0883     534.9199
   1426.71387     536.6880     537.8171   1426.71387     536.6880     537.8171
   1426.69861     538.7136     541.0106   1426.69861     538.7136     541.0106
   1426.68335     542.5153     543.1119   1426.68335     542.5153     543.1119
   1426.66809     545.5092     547.5095   1426.66809     545.5092     547.5095
   1426.65283     549.6465     549.6295   1426.65283     549.6465     549.6295
   1426.63757     552.4521     551.5459   1426.63757     552.4521     551.5459
   1426.62231     554.9104     555.4633   1426.62231     554.9104     555.4633
   1426.60706     558.1530     557.5180   1426.60706     558.1530     557.5180
   1426.59180     561.8904     560.0267   1426.59180     561.8904     560.0267
   1426.57654     564.2878     561.5743   1426.57654     564.2878     561.5743
   1426.56128     568.1715     564.4637   1426.56128     568.1715     564.4637
   1426.54602     570.0735     567.1985   1426.54602     570.0735     567.1985
   1426.53076     573.4242     570.2903   1426.53076     573.4242     570.2903
   1426.51550     576.5680     572.1653   1426.51550     576.5680     572.1653
   1426.50024     579.5997     573.2923   1426.50024     579.5997     573.2923
   1426.48499     582.2805     576.6766   1426.48499     582.2805     576.6766
   1426.46973     586.1790     578.4856   1426.46973     586.1790     578.4856
   1426.45447     589.3534     580.4801   1426.45447     589.3534     580.4801
   1426.43921     591.6649     583.0844   1426.43921     591.6649     583.0844
   1426.42395     595.6912     585.4423   1426.42395     595.6912     585.4423
   1426.40869     598.2374     586.7011   1426.40869     598.2374     586.7011
   1426.39343     601.1147     590.1271   1426.39343     601.1147     590.1271
   1426.37817     604.8621     591.9660   1426.37817     604.8621     591.9660
   1426.36292     606.8769     593.7158   1426.36292     606.8769     593.7158
   1426.34766     610.0043     595.2842   1426.34766     610.0043     595.2842
   1426.33240     613.3091     597.2471   1426.33240     613.3091     597.2471
   1426.31714     617.3823     599.2626   1426.31714     617.3823     599.2626
   1426.30188     619.7604     601.7787   1426.30188     619.7604     601.7787
   1426.28662     622.7662     602.7477   1426.28662     622.7662     602.7477
   1426.27136     625.2605     604.7195   1426.27136     625.2605     604.7195
   1426.25610     628.5179     607.7578   1426.25610     628.5179     607.7578
   1426.24084     631.9443     608.2566   1426.24084     631.9443     608.2566
   1426.22559     633.1113     610.1252   1426.22559     633.1113     610.1252
   1426.21033     635.4525     612.3542   1426.21033     635.4525     612.3542
   1426.19507     639.5719     614.0162   1426.19507     639.5719     614.0162
   1426.17981     642.3456     615.9897   1426.17981     642.3456     615.9897
   1426.16455     645.4801     617.0192   1426.16455     645.4801     617.0192
   1426.14929     647.9352     618.0012   1426.14929     647.9352     618.0012
   1426.13403     650.9238     620.9217   1426.13403     650.9238     620.9217
   1426.11877     652.5058     621.8480   1426.11877     652.5058     621.8480
   1426.10352     655.8929     623.2290   1426.10352     655.8929     623.2290
   1426.08826     659.2058     624.3514   1426.08826     659.2058     624.3514
   1426.07300     660.2845     625.1915   1426.07300     660.2845     625.1915
   1426.05774     663.6667     626.8903   1426.05774     663.6667     626.8903
   1426.04248     667.2231     628.6495   1426.04248     667.2231     628.6495
   1426.02722     668.8166     630.4976   1426.02722     668.8166     630.4976
   1426.01196     671.5706     630.7098   1426.01196     671.5706     630.7098
   1425.99670     673.9744     632.5372   1425.99670     673.9744     632.5372
   1425.98145     676.3466     632.8893   1425.98145     676.3466     632.8893
   1425.96619     678.7469     635.0974   1425.96619     678.7469     635.0974
   1425.95093     680.3037     635.3832   1425.95093     680.3037     635.3832
   1425.93567     683.6815     636.9442   1425.93567     683.6815     636.9442
   1425.92041     685.4941     638.2635   1425.92041     685.4941     638.2635
   1425.90515     688.4409     639.6303   1425.90515     688.4409     639.6303
   1425.88989     691.5557     639.5659   1425.88989     691.5557     639.5659
   1425.87463     692.4417     641.1447   1425.87463     692.4417     641.1447
   1425.85938     695.3212     641.9648   1425.85938     695.3212     641.9648
   1425.84412     697.2556     643.9954   1425.84412     697.2556     643.9954
   1425.82886     698.9041     644.4864   1425.82886     698.9041     644.4864
   1425.81360     702.1016     646.2110   1425.81360     702.1016     646.2110
   1425.79834     704.3906     645.7734   1425.79834     704.3906     645.7734
   1425.78308     706.6844     647.0878   1425.78308     706.6844     647.0878
   1425.76782     707.4645     646.7953   1425.76782     707.4645     646.7953
   1425.75256     709.5340     648.4863   1425.75256     709.5340     648.4863
   1425.73730     711.9501     649.1586   1425.73730     711.9501     649.1586
   1425.72205     713.1834     649.1134   1425.72205     713.1834     649.1134
   1425.70679     715.5831     649.3854   1425.70679     715.5831     649.3854
   1425.69153     717.6964     650.7249   1425.69153     717.6964     650.7249
   1425.67627     719.6901     651.4437   1425.67627     719.6901     651.4437
   1425.66101     721.8705     651.2353   1425.66101     721.8705     651.2353
   1425.64575     723.6823     653.5397   1425.64575     723.6823     653.5397
   1425.63049     725.2013     651.6557   1425.63049     725.2013     651.6557
   1425.61523     726.7434     653.3464   1425.61523     726.7434     653.3464
   1425.59998     727.9362     654.2774   1425.59998     727.9362     654.2774
   1425.58472     728.7220     653.5966   1425.58472     728.7220     653.5966
   1425.56946     731.3606     654.3264   1425.56946     731.3606     654.3264
   1425.55420     732.1547     655.1924   1425.55420     732.1547     655.1924
   1425.53894     733.9227     655.1185   1425.53894     733.9227     655.1185
   1425.52368     735.8608     656.2156   1425.52368     735.8608     656.2156
   1425.50842     738.0366     655.8712   1425.50842     738.0366     655.8712
   1425.49316     739.0811     656.3383   1425.49316     739.0811     656.3383
   1425.47791     740.7461     657.5092   1425.47791     740.7461     657.5092
   1425.46265     742.9457     657.9619   1425.46265     742.9457     657.9619
   1425.44739     743.6027     656.8054   1425.44739     743.6027     656.8054
   1425.43213     743.6995     658.3979   1425.43213     743.6995     658.3979
   1425.41687     747.3102     658.6772   1425.41687     747.3102     658.6772
   1425.40161     747.2227     658.2363   1425.40161     747.2227     658.2363
   1425.38635     747.7137     658.0658   1425.38635     747.7137     658.0658
   1425.37109     750.1755     659.0798   1425.37109     750.1755     659.0798
   1425.35583     751.5507     658.1075   1425.35583     751.5507     658.1075
   1425.34058     752.8738     657.4717   1425.34058     752.8738     657.4717
   1425.32532     752.6416     658.5616   1425.32532     752.6416     658.5616
   1425.31006     754.8839     658.3230   1425.31006     754.8839     658.3230
   1425.29480     753.8853     658.3398   1425.29480     753.8853     658.3398
   1425.27954     756.7539     658.2517   1425.27954     756.7539     658.2517
   1425.26428     757.0549     659.5318   1425.26428     757.0549     659.5318
   1425.24902     758.7319     658.2505   1425.24902     758.7319     658.2505
   1425.23376     759.2701     658.5151   1425.23376     759.2701     658.5151
   1425.21851     759.4877     659.1682   1425.21851     759.4877     659.1682
   1425.20325     760.8712     657.3926   1425.20325     760.8712     657.3926
   1425.18799     762.0434     657.8577   1425.18799     762.0434     657.8577
   1425.17273     763.0999     658.2779   1425.17273     763.0999     658.2779
   1425.15747     764.2465     658.0880   1425.15747     764.2465     658.0880
   1425.14221     764.3769     657.4158   1425.14221     764.3769     657.4158
   1425.12695     765.2769     656.3649   1425.12695     765.2769     656.3649
   1425.11169     766.1266     658.5114   1425.11169     766.1266     658.5114
   1425.09644     766.8322     657.1571   1425.09644     766.8322     657.1571
   1425.08118     766.9077     656.8307   1425.08118     766.9077     656.8307
   1425.06592     768.6407     656.6557   1425.06592     768.6407     656.6557
   1425.05066     768.3758     656.4481   1425.05066     768.3758     656.4481
   1425.03540     767.6536     655.5142   1425.03540     767.6536     655.5142
   1425.02014     768.1939     657.3300   1425.02014     768.1939     657.3300
   1425.00488     769.5426     655.6386   1425.00488     769.5426     655.6386
   1424.98962     770.6951     655.4199   1424.98962     770.6951     655.4199
   1424.97437     770.6407     655.2044   1424.97437     770.6407     655.2044
   1424.95911     771.2079     654.6995   1424.95911     771.2079     654.6995
   1424.94385     770.7307     654.4962   1424.94385     770.7307     654.4962
   1424.92859     771.5790     653.1360   1424.92859     771.5790     653.1360
   1424.91333     772.1446     654.4730   1424.91333     772.1446     654.4730
   1424.89807     771.8295     653.0911   1424.89807     771.8295     653.0911
   1424.88281     772.2939     652.8481   1424.88281     772.2939     652.8481
   1424.86755     773.4952     653.7692   1424.86755     773.4952     653.7692
   1424.85229     772.8072     652.2021   1424.85229     772.8072     652.2021
   1424.83704     773.1786     652.0534   1424.83704     773.1786     652.0534
   1424.82178     773.6394     651.2193   1424.82178     773.6394     651.2193
   1424.80652     773.4542     651.1105   1424.80652     773.4542     651.1105
   1424.79126     773.4913     650.6479   1424.79126     773.4913     650.6479
   1424.77600     773.6061     649.6547   1424.77600     773.6061     649.6547
   1424.76074     774.2528     648.5494   1424.76074     774.2528     648.5494
   1424.74548     774.6964     650.2559   1424.74548     774.6964     650.2559
   1424.73022     774.6429     648.9502   1424.73022     774.6429     648.9502
   1424.71497     772.9532     647.3091   1424.71497     772.9532     647.3091
   1424.69971     774.3195     648.2299   1424.69971     774.3195     648.2299
   1424.68445     774.2134     646.6586   1424.68445     774.2134     646.6586
   1424.66919     774.2365     646.9941   1424.66919     774.2365     646.9941
   1424.65393     774.4482     645.4895   1424.65393     774.4482     645.4895
   1424.63867     774.4155     645.1600   1424.63867     774.4155     645.1600
   1424.62341     773.8633     644.8287   1424.62341     773.8633     644.8287
   1424.60815     773.9380     644.3844   1424.60815     773.9380     644.3844
   1424.59290     774.6301     644.0019   1424.59290     774.6301     644.0019
   1424.57764     774.1908     643.0815   1424.57764     774.1908     643.0815
   1424.56238     774.2173     641.6257   1424.56238     774.2173     641.6257
   1424.54712     774.9724     641.4955   1424.54712     774.9724     641.4955
   1424.53186     773.2397     641.0302   1424.53186     773.2397     641.0302
   1424.51660     773.9519     640.0426   1424.51660     773.9519     640.0426
   1424.50134     775.1308     639.7272   1424.50134     775.1308     639.7272
   1424.48608     773.1310     640.4356   1424.48608     773.1310     640.4356
   1424.47083     773.3063     637.6783   1424.47083     773.3063     637.6783
   1424.45557     772.9102     638.6796   1424.45557     772.9102     638.6796
   1424.44031     773.5944     637.5347   1424.44031     773.5944     637.5347
   1424.42505     772.0109     638.4250   1424.42505     772.0109     638.4250
   1424.40979     771.8139     636.6309   1424.40979     771.8139     636.6309
   1424.39453     770.7286     635.2487   1424.39453     770.7286     635.2487
   1424.37927     771.0381     635.0872   1424.37927     771.0381     635.0872
   1424.36401     771.9945     633.8423   1424.36401     771.9945     633.8423
   1424.34875     771.5266     633.1665   1424.34875     771.5266     633.1665
   1424.33350     770.7954     633.1887   1424.33350     770.7954     633.1887
   1424.31824     771.6121     632.1385   1424.31824     771.6121     632.1385
   1424.30298     769.8112     632.2881   1424.30298     769.8112     632.2881
   1424.28772     771.2493     631.1066   1424.28772     771.2493     631.1066
   1424.27246     769.1509     630.0338   1424.27246     769.1509     630.0338
   1424.25720     769.5388     630.3024   1424.25720     769.5388     630.3024
   1424.24194     768.7749     628.4341   1424.24194     768.7749     628.4341
   1424.22668     767.4766     628.3361   1424.22668     767.4766     628.3361
   1424.21143     767.8488     627.9239   1424.21143     767.8488     627.9239
   1424.19617     768.1249     627.2107   1424.19617     768.1249     627.2107
   1424.18091     767.4122     626.7787   1424.18091     767.4122     626.7787
   1424.16565     768.6336     625.6108   1424.16565     768.6336     625.6108
