#     FILENAME=!Skynet_57528_lach-cc-184_20576_21007.cyb.fits
#     BASENAME=Skynet_57528_lach-cc-184_20576_21007
#     SRC_NAME=lach-cc-184
#     OBSERVER=ccmadison16_9505
#     DATE_OBS=2016-05-20T18:48:14.120
#        OBSID=20576
#      SCANNUM=21007
#          MJD=57528.7845
#          UTC=67783
#     SCANTYPE=track
#     DATAMODE=HIRES
#     TUNEFREQ=1420.0000
# Actual_FREQ1=1420.0000
# Actual_FREQ2=1420.0000
#    LO1Tuning=6870.000
#     RFFILTER=1355_1435
#        OBSBW=-15.6250
#        NCHAN=1024 
#        FOCUS=37.0709
#           RA=05:54:48.77
#          DEC=25:30:05.60
#      RA(hrs)=5.913600
#     DEC(deg)=25.502000
#    AZIM(deg)=150.034
#    ELEV(deg)=75.349
#     IFattens=10.00, 9.00
#      WARNING=None
#    TCAL_XL1=7.9635
#    TCAL_YR1=9.1340
#    TCAL_XL2=7.9635
#    TCAL_YR2=9.1340
#     TRX_XL1=11.7060
#     TRX_YR1=11.7060
#     TRX_XL2=11.7060
#     TRX_YR2=11.7060
#        TAVE=1.0000
#Freq1(MHz)          XL1          YR1  Freq2(MHz)          XL2          YR2 

   1427.81250     376.0580     342.9639   1427.81250     376.0580     342.9639
   1427.79724     377.4196     343.7120   1427.79724     377.4196     343.7120
   1427.78198     377.5992     345.0832   1427.78198     377.5992     345.0832
   1427.76672     378.6030     346.7467   1427.76672     378.6030     346.7467
   1427.75146     378.7932     348.1123   1427.75146     378.7932     348.1123
   1427.73621     380.5134     349.9427   1427.73621     380.5134     349.9427
   1427.72095     380.8012     351.2357   1427.72095     380.8012     351.2357
   1427.70569     381.4967     352.6573   1427.70569     381.4967     352.6573
   1427.69043     382.8054     354.4349   1427.69043     382.8054     354.4349
   1427.67517     383.4804     356.1347   1427.67517     383.4804     356.1347
   1427.65991     385.1778     357.9886   1427.65991     385.1778     357.9886
   1427.64465     385.7148     358.8291   1427.64465     385.7148     358.8291
   1427.62939     387.6039     361.2464   1427.62939     387.6039     361.2464
   1427.61414     388.2350     362.9089   1427.61414     388.2350     362.9089
   1427.59888     389.7582     364.4023   1427.59888     389.7582     364.4023
   1427.58362     391.0944     366.3617   1427.58362     391.0944     366.3617
   1427.56836     392.2958     368.1119   1427.56836     392.2958     368.1119
   1427.55310     393.4881     369.8949   1427.55310     393.4881     369.8949
   1427.53784     395.5987     371.1844   1427.53784     395.5987     371.1844
   1427.52258     396.9959     373.6684   1427.52258     396.9959     373.6684
   1427.50732     398.3774     375.4633   1427.50732     398.3774     375.4633
   1427.49207     400.5424     377.8695   1427.49207     400.5424     377.8695
   1427.47681     402.0605     379.6374   1427.47681     402.0605     379.6374
   1427.46155     403.3982     382.1280   1427.46155     403.3982     382.1280
   1427.44629     405.2095     383.7549   1427.44629     405.2095     383.7549
   1427.43103     406.9114     385.2095   1427.43103     406.9114     385.2095
   1427.41577     409.2635     387.8313   1427.41577     409.2635     387.8313
   1427.40051     411.1808     390.3007   1427.40051     411.1808     390.3007
   1427.38525     413.1608     391.5972   1427.38525     413.1608     391.5972
   1427.37000     415.4266     393.6962   1427.37000     415.4266     393.6962
   1427.35474     417.3100     396.1445   1427.35474     417.3100     396.1445
   1427.33948     419.1950     398.6483   1427.33948     419.1950     398.6483
   1427.32422     421.0426     400.4365   1427.32422     421.0426     400.4365
   1427.30896     423.7458     402.4702   1427.30896     423.7458     402.4702
   1427.29370     425.2294     404.8006   1427.29370     425.2294     404.8006
   1427.27844     427.7986     406.9802   1427.27844     427.7986     406.9802
   1427.26318     429.6020     409.2945   1427.26318     429.6020     409.2945
   1427.24792     431.9766     411.7662   1427.24792     431.9766     411.7662
   1427.23267     434.8901     412.9647   1427.23267     434.8901     412.9647
   1427.21741     437.5636     416.0211   1427.21741     437.5636     416.0211
   1427.20215     440.0353     417.5841   1427.20215     440.0353     417.5841
   1427.18689     442.2339     421.3823   1427.18689     442.2339     421.3823
   1427.17163     444.3685     422.8692   1427.17163     444.3685     422.8692
   1427.15637     447.2054     424.4409   1427.15637     447.2054     424.4409
   1427.14111     449.2812     427.4015   1427.14111     449.2812     427.4015
   1427.12585     452.3318     429.5406   1427.12585     452.3318     429.5406
   1427.11060     455.0813     432.0619   1427.11060     455.0813     432.0619
   1427.09534     457.2023     434.0613   1427.09534     457.2023     434.0613
   1427.08008     459.4997     436.4993   1427.08008     459.4997     436.4993
   1427.06482     463.0904     438.9824   1427.06482     463.0904     438.9824
   1427.04956     466.2013     441.2525   1427.04956     466.2013     441.2525
   1427.03430     468.3208     443.3869   1427.03430     468.3208     443.3869
   1427.01904     471.1714     446.2809   1427.01904     471.1714     446.2809
   1427.00378     473.8488     448.0553   1427.00378     473.8488     448.0553
   1426.98853     476.8608     451.3241   1426.98853     476.8608     451.3241
   1426.97327     479.7000     453.3525   1426.97327     479.7000     453.3525
   1426.95801     482.6698     455.1661   1426.95801     482.6698     455.1661
   1426.94275     485.5090     457.7347   1426.94275     485.5090     457.7347
   1426.92749     488.6705     460.2275   1426.92749     488.6705     460.2275
   1426.91223     490.7964     462.0889   1426.91223     490.7964     462.0889
   1426.89697     493.4325     464.6931   1426.89697     493.4325     464.6931
   1426.88171     497.2564     467.1603   1426.88171     497.2564     467.1603
   1426.86646     500.2147     468.2456   1426.86646     500.2147     468.2456
   1426.85120     503.7897     470.4095   1426.85120     503.7897     470.4095
   1426.83594     506.8432     473.6292   1426.83594     506.8432     473.6292
   1426.82068     509.3782     475.6890   1426.82068     509.3782     475.6890
   1426.80542     512.1096     477.9643   1426.80542     512.1096     477.9643
   1426.79016     514.8876     480.6690   1426.79016     514.8876     480.6690
   1426.77490     517.6072     482.4264   1426.77490     517.6072     482.4264
   1426.75964     520.4795     484.6522   1426.75964     520.4795     484.6522
   1426.74438     524.6683     486.4045   1426.74438     524.6683     486.4045
   1426.72913     527.4250     489.2728   1426.72913     527.4250     489.2728
   1426.71387     531.3862     491.8783   1426.71387     531.3862     491.8783
   1426.69861     534.1655     493.7639   1426.69861     534.1655     493.7639
   1426.68335     536.3106     495.1728   1426.68335     536.3106     495.1728
   1426.66809     539.7795     497.1624   1426.66809     539.7795     497.1624
   1426.65283     542.8220     499.7684   1426.65283     542.8220     499.7684
   1426.63757     546.6840     502.5048   1426.63757     546.6840     502.5048
   1426.62231     549.8983     509.1732   1426.62231     549.8983     509.1732
   1426.60706     552.9037     505.8693   1426.60706     552.9037     505.8693
   1426.59180     555.0753     508.5275   1426.59180     555.0753     508.5275
   1426.57654     558.3062     510.4952   1426.57654     558.3062     510.4952
   1426.56128     561.6755     512.2278   1426.56128     561.6755     512.2278
   1426.54602     565.1835     514.5416   1426.54602     565.1835     514.5416
   1426.53076     569.2230     517.7784   1426.53076     569.2230     517.7784
   1426.51550     570.6215     518.8783   1426.51550     570.6215     518.8783
   1426.50024     572.9974     520.6972   1426.50024     572.9974     520.6972
   1426.48499     576.8983     522.8318   1426.48499     576.8983     522.8318
   1426.46973     580.0146     524.5535   1426.46973     580.0146     524.5535
   1426.45447     583.4780     526.2703   1426.45447     583.4780     526.2703
   1426.43921     586.1655     528.2349   1426.43921     586.1655     528.2349
   1426.42395     589.7104     530.5334   1426.42395     589.7104     530.5334
   1426.40869     592.3854     532.3380   1426.40869     592.3854     532.3380
   1426.39343     595.0425     534.7689   1426.39343     595.0425     534.7689
   1426.37817     598.5306     535.9069   1426.37817     598.5306     535.9069
   1426.36292     602.3400     537.7497   1426.36292     602.3400     537.7497
   1426.34766     604.9002     539.9734   1426.34766     604.9002     539.9734
   1426.33240     607.5291     542.8964   1426.33240     607.5291     542.8964
   1426.31714     610.7550     543.5567   1426.31714     610.7550     543.5567
   1426.30188     613.1809     546.1199   1426.30188     613.1809     546.1199
   1426.28662     615.4046     547.0946   1426.28662     615.4046     547.0946
   1426.27136     619.9392     549.4988   1426.27136     619.9392     549.4988
   1426.25610     621.4124     551.9858   1426.25610     621.4124     551.9858
   1426.24084     625.3520     552.4106   1426.24084     625.3520     552.4106
   1426.22559     628.9057     553.7501   1426.22559     628.9057     553.7501
   1426.21033     630.3544     556.3310   1426.21033     630.3544     556.3310
   1426.19507     634.0363     558.6572   1426.19507     634.0363     558.6572
   1426.17981     637.5657     559.5020   1426.17981     637.5657     559.5020
   1426.16455     639.1523     561.8833   1426.16455     639.1523     561.8833
   1426.14929     642.1664     563.3933   1426.14929     642.1664     563.3933
   1426.13403     644.7767     564.2739   1426.13403     644.7767     564.2739
   1426.11877     647.5148     566.4309   1426.11877     647.5148     566.4309
   1426.10352     651.2252     568.8928   1426.10352     651.2252     568.8928
   1426.08826     652.8768     570.0061   1426.08826     652.8768     570.0061
   1426.07300     655.3262     570.7784   1426.07300     655.3262     570.7784
   1426.05774     658.6401     571.8013   1426.05774     658.6401     571.8013
   1426.04248     660.3679     574.1401   1426.04248     660.3679     574.1401
   1426.02722     663.5361     575.2999   1426.02722     663.5361     575.2999
   1426.01196     666.0322     576.6700   1426.01196     666.0322     576.6700
   1425.99670     669.3850     578.6270   1425.99670     669.3850     578.6270
   1425.98145     670.8528     579.8827   1425.98145     670.8528     579.8827
   1425.96619     674.3658     581.1130   1425.96619     674.3658     581.1130
   1425.95093     675.6653     582.6165   1425.95093     675.6653     582.6165
   1425.93567     677.5339     584.5508   1425.93567     677.5339     584.5508
   1425.92041     681.0950     584.8796   1425.92041     681.0950     584.8796
   1425.90515     683.3004     586.5082   1425.90515     683.3004     586.5082
   1425.88989     685.1135     588.5028   1425.88989     685.1135     588.5028
   1425.87463     687.0356     588.7227   1425.87463     687.0356     588.7227
   1425.85938     689.5144     590.5031   1425.85938     689.5144     590.5031
   1425.84412     692.4560     591.9702   1425.84412     692.4560     591.9702
   1425.82886     694.7321     593.0487   1425.82886     694.7321     593.0487
   1425.81360     696.2524     594.8679   1425.81360     696.2524     594.8679
   1425.79834     698.0986     596.3403   1425.79834     698.0986     596.3403
   1425.78308     699.9187     597.3578   1425.78308     699.9187     597.3578
   1425.76782     702.3842     597.7223   1425.76782     702.3842     597.7223
   1425.75256     704.5237     598.9537   1425.75256     704.5237     598.9537
   1425.73730     706.4755     599.8345   1425.73730     706.4755     599.8345
   1425.72205     708.5307     601.5929   1425.72205     708.5307     601.5929
   1425.70679     709.1191     602.4395   1425.70679     709.1191     602.4395
   1425.69153     712.4289     602.8940   1425.69153     712.4289     602.8940
   1425.67627     714.8111     604.4952   1425.67627     714.8111     604.4952
   1425.66101     716.9906     604.5933   1425.66101     716.9906     604.5933
   1425.64575     718.8837     606.5015   1425.64575     718.8837     606.5015
   1425.63049     719.9344     607.3502   1425.63049     719.9344     607.3502
   1425.61523     722.6500     607.8696   1425.61523     722.6500     607.8696
   1425.59998     723.4577     608.9995   1425.59998     723.4577     608.9995
   1425.58472     726.0124     610.0019   1425.58472     726.0124     610.0019
   1425.56946     726.1642     609.5360   1425.56946     726.1642     609.5360
   1425.55420     728.4424     611.8981   1425.55420     728.4424     611.8981
   1425.53894     731.3285     611.8182   1425.53894     731.3285     611.8182
   1425.52368     731.8219     613.4811   1425.52368     731.8219     613.4811
   1425.50842     734.1891     614.3348   1425.50842     734.1891     614.3348
   1425.49316     734.7960     613.8986   1425.49316     734.7960     613.8986
   1425.47791     735.3879     615.4969   1425.47791     735.3879     615.4969
   1425.46265     737.5864     615.4020   1425.46265     737.5864     615.4020
   1425.44739     739.6686     616.8250   1425.44739     739.6686     616.8250
   1425.43213     739.6765     618.0140   1425.43213     739.6765     618.0140
   1425.41687     742.1526     619.4210   1425.41687     742.1526     619.4210
   1425.40161     742.4498     619.5744   1425.40161     742.4498     619.5744
   1425.38635     742.6820     619.4180   1425.38635     742.6820     619.4180
   1425.37109     745.9875     619.9324   1425.37109     745.9875     619.9324
   1425.35583     745.9849     620.7659   1425.35583     745.9849     620.7659
   1425.34058     747.2352     621.4131   1425.34058     747.2352     621.4131
   1425.32532     748.6848     621.3775   1425.32532     748.6848     621.3775
   1425.31006     750.6779     623.3096   1425.31006     750.6779     623.3096
   1425.29480     749.6025     623.4268   1425.29480     749.6025     623.4268
   1425.27954     751.2050     622.6924   1425.27954     751.2050     622.6924
   1425.26428     753.0991     624.1206   1425.26428     753.0991     624.1206
   1425.24902     754.5568     624.0052   1425.24902     754.5568     624.0052
   1425.23376     755.2083     624.6451   1425.23376     755.2083     624.6451
   1425.21851     756.6481     624.6820   1425.21851     756.6481     624.6820
   1425.20325     756.8871     625.8286   1425.20325     756.8871     625.8286
   1425.18799     757.0179     626.2845   1425.18799     757.0179     626.2845
   1425.17273     758.0461     626.1931   1425.17273     758.0461     626.1931
   1425.15747     760.2634     626.3959   1425.15747     760.2634     626.3959
   1425.14221     759.8103     626.9493   1425.14221     759.8103     626.9493
   1425.12695     759.4610     628.9760   1425.12695     759.4610     628.9760
   1425.11169     762.3226     627.5909   1425.11169     762.3226     627.5909
   1425.09644     763.0558     629.1120   1425.09644     763.0558     629.1120
   1425.08118     763.0195     628.7594   1425.08118     763.0195     628.7594
   1425.06592     762.5843     627.6329   1425.06592     762.5843     627.6329
   1425.05066     763.8627     628.2594   1425.05066     763.8627     628.2594
   1425.03540     765.8448     628.9978   1425.03540     765.8448     628.9978
   1425.02014     764.4110     628.5192   1425.02014     764.4110     628.5192
   1425.00488     764.5475     628.9745   1425.00488     764.5475     628.9745
   1424.98962     766.1624     630.4368   1424.98962     766.1624     630.4368
   1424.97437     766.4072     628.1466   1424.97437     766.4072     628.1466
   1424.95911     766.2469     629.5966   1424.95911     766.2469     629.5966
   1424.94385     765.9625     629.2909   1424.94385     765.9625     629.2909
   1424.92859     767.8310     629.6664   1424.92859     767.8310     629.6664
   1424.91333     766.7487     629.7188   1424.91333     766.7487     629.7188
   1424.89807     768.2962     630.5688   1424.89807     768.2962     630.5688
   1424.88281     768.9495     630.1672   1424.88281     768.9495     630.1672
   1424.86755     768.4440     629.6429   1424.86755     768.4440     629.6429
   1424.85229     768.6812     630.2924   1424.85229     768.6812     630.2924
   1424.83704     769.9229     629.9296   1424.83704     769.9229     629.9296
   1424.82178     769.4215     630.0415   1424.82178     769.4215     630.0415
   1424.80652     770.2859     630.0104   1424.80652     770.2859     630.0104
   1424.79126     770.5758     630.0996   1424.79126     770.5758     630.0996
   1424.77600     769.8428     629.3616   1424.77600     769.8428     629.3616
   1424.76074     769.4537     629.0009   1424.76074     769.4537     629.0009
   1424.74548     769.0880     629.3345   1424.74548     769.0880     629.3345
   1424.73022     771.3336     628.9855   1424.73022     771.3336     628.9855
   1424.71497     770.9706     629.0197   1424.71497     770.9706     629.0197
   1424.69971     769.9897     629.3899   1424.69971     769.9897     629.3899
   1424.68445     770.3152     629.1967   1424.68445     770.3152     629.1967
   1424.66919     769.7424     629.0775   1424.66919     769.7424     629.0775
   1424.65393     771.0408     628.1071   1424.65393     771.0408     628.1071
   1424.63867     770.5215     627.6119   1424.63867     770.5215     627.6119
   1424.62341     770.0765     628.7888   1424.62341     770.0765     628.7888
   1424.60815     769.2066     626.8770   1424.60815     769.2066     626.8770
   1424.59290     770.7355     628.1574   1424.59290     770.7355     628.1574
   1424.57764     770.1154     627.3689   1424.57764     770.1154     627.3689
   1424.56238     769.3434     627.5330   1424.56238     769.3434     627.5330
   1424.54712     770.4233     626.6866   1424.54712     770.4233     626.6866
   1424.53186     769.6205     627.3099   1424.53186     769.6205     627.3099
   1424.51660     769.4355     626.9701   1424.51660     769.4355     626.9701
   1424.50134     770.2155     626.7343   1424.50134     770.2155     626.7343
   1424.48608     767.7225     626.5037   1424.48608     767.7225     626.5037
   1424.47083     769.0475     625.7068   1424.47083     769.0475     625.7068
   1424.45557     768.1367     624.8626   1424.45557     768.1367     624.8626
   1424.44031     768.5166     625.1775   1424.44031     768.5166     625.1775
   1424.42505     767.4509     625.0742   1424.42505     767.4509     625.0742
   1424.40979     767.0651     624.3484   1424.40979     767.0651     624.3484
   1424.39453     767.0203     623.8137   1424.39453     767.0203     623.8137
   1424.37927     767.6628     623.0049   1424.37927     767.6628     623.0049
   1424.36401     766.3497     622.6643   1424.36401     766.3497     622.6643
   1424.34875     766.9749     622.5077   1424.34875     766.9749     622.5077
   1424.33350     767.2161     621.1986   1424.33350     767.2161     621.1986
   1424.31824     765.8295     621.3734   1424.31824     765.8295     621.3734
   1424.30298     765.6700     621.7379   1424.30298     765.6700     621.7379
   1424.28772     765.7406     621.6347   1424.28772     765.7406     621.6347
   1424.27246     766.1165     620.7254   1424.27246     766.1165     620.7254
   1424.25720     765.3011     618.9490   1424.25720     765.3011     618.9490
   1424.24194     764.7333     619.4944   1424.24194     764.7333     619.4944
   1424.22668     763.3138     617.8746   1424.22668     763.3138     617.8746
   1424.21143     763.0947     617.9808   1424.21143     763.0947     617.9808
   1424.19617     763.4314     617.3824   1424.19617     763.4314     617.3824
   1424.18091     762.1877     616.8235   1424.18091     762.1877     616.8235
   1424.16565     761.4929     616.3608   1424.16565     761.4929     616.3608
