#     FILENAME=!Skynet_57528_lach-hhg-114_20385_20938.cyb.fits
#     BASENAME=Skynet_57528_lach-hhg-114_20385_20938
#     SRC_NAME=lach-hhg-114
#     OBSERVER=hhgmadison16_9500
#     DATE_OBS=2016-05-20T16:25:42.430
#        OBSID=20385
#      SCANNUM=20938
#          MJD=57528.6856
#          UTC=59231
#     SCANTYPE=track
#     DATAMODE=HIRES
#     TUNEFREQ=1420.0000
# Actual_FREQ1=1420.0000
# Actual_FREQ2=1420.0000
#    LO1Tuning=6870.000
#     RFFILTER=1355_1435
#        OBSBW=-15.6250
#        NCHAN=1024 
#        FOCUS=37.0709
#           RA=23:35:25.68
#          DEC=61:32:43.26
#      RA(hrs)=23.590500
#     DEC(deg)=61.545400
#    AZIM(deg)=323.157
#    ELEV(deg)=51.114
#     IFattens=10.00, 9.00
#      WARNING=None
#    TCAL_XL1=7.9635
#    TCAL_YR1=9.1340
#    TCAL_XL2=7.9635
#    TCAL_YR2=9.1340
#     TRX_XL1=11.7060
#     TRX_YR1=11.7060
#     TRX_XL2=11.7060
#     TRX_YR2=11.7060
#        TAVE=1.0000
#Freq1(MHz)          XL1          YR1  Freq2(MHz)          XL2          YR2 

   1427.81250     379.9252     281.4040   1427.81250     379.9252     281.4040
   1427.79724     381.7677     281.6129   1427.79724     381.7677     281.6129
   1427.78198     381.8610     282.8109   1427.78198     381.8610     282.8109
   1427.76672     382.6439     283.4576   1427.76672     382.6439     283.4576
   1427.75146     383.7379     284.0796   1427.75146     383.7379     284.0796
   1427.73621     384.7883     284.8749   1427.73621     384.7883     284.8749
   1427.72095     385.5291     285.7395   1427.72095     385.5291     285.7395
   1427.70569     386.6354     286.7544   1427.70569     386.6354     286.7544
   1427.69043     387.4091     287.8983   1427.69043     387.4091     287.8983
   1427.67517     388.6750     288.8107   1427.67517     388.6750     288.8107
   1427.65991     389.7547     289.7219   1427.65991     389.7547     289.7219
   1427.64465     391.0630     290.5600   1427.64465     391.0630     290.5600
   1427.62939     392.8343     292.0067   1427.62939     392.8343     292.0067
   1427.61414     393.0917     293.3470   1427.61414     393.0917     293.3470
   1427.59888     394.6557     294.6289   1427.59888     394.6557     294.6289
   1427.58362     396.0987     296.1377   1427.58362     396.0987     296.1377
   1427.56836     398.0431     296.8439   1427.56836     398.0431     296.8439
   1427.55310     399.4173     298.2405   1427.55310     399.4173     298.2405
   1427.53784     401.2521     299.1351   1427.53784     401.2521     299.1351
   1427.52258     403.0318     300.9221   1427.52258     403.0318     300.9221
   1427.50732     404.5930     302.8495   1427.50732     404.5930     302.8495
   1427.49207     405.9843     303.5545   1427.49207     405.9843     303.5545
   1427.47681     408.0010     305.2625   1427.47681     408.0010     305.2625
   1427.46155     410.6777     307.0712   1427.46155     410.6777     307.0712
   1427.44629     411.9395     309.0430   1427.44629     411.9395     309.0430
   1427.43103     413.0587     310.1693   1427.43103     413.0587     310.1693
   1427.41577     414.9514     312.3548   1427.41577     414.9514     312.3548
   1427.40051     417.5595     313.3111   1427.40051     417.5595     313.3111
   1427.38525     419.3670     315.4645   1427.38525     419.3670     315.4645
   1427.37000     421.8411     316.8365   1427.37000     421.8411     316.8365
   1427.35474     423.6519     318.4439   1427.35474     423.6519     318.4439
   1427.33948     426.3679     320.6302   1427.33948     426.3679     320.6302
   1427.32422     428.2376     322.6465   1427.32422     428.2376     322.6465
   1427.30896     430.5630     324.0237   1427.30896     430.5630     324.0237
   1427.29370     433.2041     325.3920   1427.29370     433.2041     325.3920
   1427.27844     434.6270     328.5153   1427.27844     434.6270     328.5153
   1427.26318     437.1895     330.4899   1427.26318     437.1895     330.4899
   1427.24792     439.4664     332.1465   1427.24792     439.4664     332.1465
   1427.23267     442.8190     334.3247   1427.23267     442.8190     334.3247
   1427.21741     445.7484     336.2123   1427.21741     445.7484     336.2123
   1427.20215     446.9930     338.4737   1427.20215     446.9930     338.4737
   1427.18689     449.7351     339.7837   1427.18689     449.7351     339.7837
   1427.17163     452.6739     342.1772   1427.17163     452.6739     342.1772
   1427.15637     455.5259     344.7255   1427.15637     455.5259     344.7255
   1427.14111     457.8510     346.4623   1427.14111     457.8510     346.4623
   1427.12585     459.9556     349.3481   1427.12585     459.9556     349.3481
   1427.11060     464.0510     351.1354   1427.11060     464.0510     351.1354
   1427.09534     466.4699     352.7683   1427.09534     466.4699     352.7683
   1427.08008     468.5526     355.4880   1427.08008     468.5526     355.4880
   1427.06482     471.6024     358.2692   1427.06482     471.6024     358.2692
   1427.04956     473.4382     360.1528   1427.04956     473.4382     360.1528
   1427.03430     477.0659     362.0270   1427.03430     477.0659     362.0270
   1427.01904     479.8270     364.5839   1427.01904     479.8270     364.5839
   1427.00378     482.0084     366.9894   1427.00378     482.0084     366.9894
   1426.98853     485.2305     369.7703   1426.98853     485.2305     369.7703
   1426.97327     488.0973     371.4599   1426.97327     488.0973     371.4599
   1426.95801     490.6333     374.0915   1426.95801     490.6333     374.0915
   1426.94275     495.1617     376.5740   1426.94275     495.1617     376.5740
   1426.92749     496.4123     378.7888   1426.92749     496.4123     378.7888
   1426.91223     500.1425     381.6570   1426.91223     500.1425     381.6570
   1426.89697     502.8718     384.4748   1426.89697     502.8718     384.4748
   1426.88171     506.1510     386.2192   1426.88171     506.1510     386.2192
   1426.86646     509.8795     389.8631   1426.86646     509.8795     389.8631
   1426.85120     512.4890     391.2117   1426.85120     512.4890     391.2117
   1426.83594     515.3696     394.1063   1426.83594     515.3696     394.1063
   1426.82068     517.7180     396.1258   1426.82068     517.7180     396.1258
   1426.80542     520.3951     398.4341   1426.80542     520.3951     398.4341
   1426.79016     523.9091     401.8024   1426.79016     523.9091     401.8024
   1426.77490     527.2482     403.9612   1426.77490     527.2482     403.9612
   1426.75964     530.5282     406.9251   1426.75964     530.5282     406.9251
   1426.74438     533.6193     409.2765   1426.74438     533.6193     409.2765
   1426.72913     536.4699     411.7344   1426.72913     536.4699     411.7344
   1426.71387     539.3871     414.2613   1426.71387     539.3871     414.2613
   1426.69861     541.8114     415.9372   1426.69861     541.8114     415.9372
   1426.68335     545.9448     419.3987   1426.68335     545.9448     419.3987
   1426.66809     548.5289     421.3138   1426.66809     548.5289     421.3138
   1426.65283     551.6928     423.9037   1426.65283     551.6928     423.9037
   1426.63757     555.5049     425.9095   1426.63757     555.5049     425.9095
   1426.62231     560.1055     429.5095   1426.62231     560.1055     429.5095
   1426.60706     561.7891     431.4165   1426.60706     561.7891     431.4165
   1426.59180     563.8808     434.0074   1426.59180     563.8808     434.0074
   1426.57654     566.7967     436.7124   1426.57654     566.7967     436.7124
   1426.56128     570.3057     438.2448   1426.56128     570.3057     438.2448
   1426.54602     573.6490     441.0407   1426.54602     573.6490     441.0407
   1426.53076     576.4744     443.5181   1426.53076     576.4744     443.5181
   1426.51550     578.9924     446.9501   1426.51550     578.9924     446.9501
   1426.50024     581.5462     449.0781   1426.50024     581.5462     449.0781
   1426.48499     584.9870     451.4590   1426.48499     584.9870     451.4590
   1426.46973     588.0522     453.8602   1426.46973     588.0522     453.8602
   1426.45447     591.2122     456.2472   1426.45447     591.2122     456.2472
   1426.43921     594.1783     458.8643   1426.43921     594.1783     458.8643
   1426.42395     597.2034     461.0607   1426.42395     597.2034     461.0607
   1426.40869     600.1309     464.5031   1426.40869     600.1309     464.5031
   1426.39343     601.9380     466.2737   1426.39343     601.9380     466.2737
   1426.37817     605.2735     468.5979   1426.37817     605.2735     468.5979
   1426.36292     608.6979     470.9428   1426.36292     608.6979     470.9428
   1426.34766     611.9868     474.0342   1426.34766     611.9868     474.0342
   1426.33240     614.9736     476.4401   1426.33240     614.9736     476.4401
   1426.31714     616.8545     478.6949   1426.31714     616.8545     478.6949
   1426.30188     620.2838     481.0526   1426.30188     620.2838     481.0526
   1426.28662     622.6715     483.2479   1426.28662     622.6715     483.2479
   1426.27136     624.5107     486.3746   1426.27136     624.5107     486.3746
   1426.25610     628.7471     488.8820   1426.25610     628.7471     488.8820
   1426.24084     631.4183     489.8341   1426.24084     631.4183     489.8341
   1426.22559     634.1252     492.5406   1426.22559     634.1252     492.5406
   1426.21033     636.0545     495.3861   1426.21033     636.0545     495.3861
   1426.19507     639.6520     497.0869   1426.19507     639.6520     497.0869
   1426.17981     642.1430     499.0472   1426.17981     642.1430     499.0472
   1426.16455     644.5170     502.5367   1426.16455     644.5170     502.5367
   1426.14929     647.1037     504.9990   1426.14929     647.1037     504.9990
   1426.13403     649.0939     506.5846   1426.13403     649.0939     506.5846
   1426.11877     651.8763     509.3661   1426.11877     651.8763     509.3661
   1426.10352     655.1777     511.3085   1426.10352     655.1777     511.3085
   1426.08826     657.5866     513.4739   1426.08826     657.5866     513.4739
   1426.07300     660.5787     515.4293   1426.07300     660.5787     515.4293
   1426.05774     662.4629     518.4268   1426.05774     662.4629     518.4268
   1426.04248     664.6125     521.5743   1426.04248     664.6125     521.5743
   1426.02722     666.3714     522.0356   1426.02722     666.3714     522.0356
   1426.01196     669.9477     524.3919   1426.01196     669.9477     524.3919
   1425.99670     672.2106     526.6733   1425.99670     672.2106     526.6733
   1425.98145     674.5651     528.4927   1425.98145     674.5651     528.4927
   1425.96619     676.3708     530.2341   1425.96619     676.3708     530.2341
   1425.95093     678.8021     533.3652   1425.95093     678.8021     533.3652
   1425.93567     680.4281     534.8768   1425.93567     680.4281     534.8768
   1425.92041     683.9180     537.1357   1425.92041     683.9180     537.1357
   1425.90515     685.2221     539.8668   1425.90515     685.2221     539.8668
   1425.88989     687.2910     541.2712   1425.88989     687.2910     541.2712
   1425.87463     689.8268     543.6768   1425.87463     689.8268     543.6768
   1425.85938     691.6912     545.5960   1425.85938     691.6912     545.5960
   1425.84412     692.7689     548.1388   1425.84412     692.7689     548.1388
   1425.82886     696.3397     549.3034   1425.82886     696.3397     549.3034
   1425.81360     698.6624     551.5239   1425.81360     698.6624     551.5239
   1425.79834     700.6213     553.6294   1425.79834     700.6213     553.6294
   1425.78308     702.8996     556.0333   1425.78308     702.8996     556.0333
   1425.76782     703.8884     557.0297   1425.76782     703.8884     557.0297
   1425.75256     706.3641     558.3370   1425.75256     706.3641     558.3370
   1425.73730     707.1760     560.4116   1425.73730     707.1760     560.4116
   1425.72205     708.8453     563.2838   1425.72205     708.8453     563.2838
   1425.70679     710.6324     564.6712   1425.70679     710.6324     564.6712
   1425.69153     712.1290     566.1239   1425.69153     712.1290     566.1239
   1425.67627     713.5304     567.6978   1425.67627     713.5304     567.6978
   1425.66101     716.5163     569.9280   1425.66101     716.5163     569.9280
   1425.64575     717.5986     572.1293   1425.64575     717.5986     572.1293
   1425.63049     718.9302     573.3340   1425.63049     718.9302     573.3340
   1425.61523     720.8437     575.9958   1425.61523     720.8437     575.9958
   1425.59998     721.7668     577.6796   1425.59998     721.7668     577.6796
   1425.58472     723.4969     578.3145   1425.58472     723.4969     578.3145
   1425.56946     724.4484     580.6541   1425.56946     724.4484     580.6541
   1425.55420     726.5917     582.7880   1425.55420     726.5917     582.7880
   1425.53894     727.2609     584.8327   1425.53894     727.2609     584.8327
   1425.52368     729.6046     585.4293   1425.52368     729.6046     585.4293
   1425.50842     731.6341     586.7112   1425.50842     731.6341     586.7112
   1425.49316     731.8364     587.9169   1425.49316     731.8364     587.9169
   1425.47791     733.6908     590.5215   1425.47791     733.6908     590.5215
   1425.46265     735.0997     592.4382   1425.46265     735.0997     592.4382
   1425.44739     736.2478     594.2463   1425.44739     736.2478     594.2463
   1425.43213     735.9507     594.5132   1425.43213     735.9507     594.5132
   1425.41687     738.3351     597.0715   1425.41687     738.3351     597.0715
   1425.40161     739.3145     598.4806   1425.40161     739.3145     598.4806
   1425.38635     740.7814     599.5774   1425.38635     740.7814     599.5774
   1425.37109     739.7477     601.2416   1425.37109     739.7477     601.2416
   1425.35583     742.1016     603.0162   1425.35583     742.1016     603.0162
   1425.34058     743.2969     604.3889   1425.34058     743.2969     604.3889
   1425.32532     744.3054     606.8595   1425.32532     744.3054     606.8595
   1425.31006     745.6400     607.4935   1425.31006     745.6400     607.4935
   1425.29480     746.8265     607.2243   1425.29480     746.8265     607.2243
   1425.27954     747.2720     609.9725   1425.27954     747.2720     609.9725
   1425.26428     748.7031     610.9559   1425.26428     748.7031     610.9559
   1425.24902     748.7734     612.3181   1425.24902     748.7734     612.3181
   1425.23376     750.8687     614.5274   1425.23376     750.8687     614.5274
   1425.21851     751.0504     615.8582   1425.21851     751.0504     615.8582
   1425.20325     752.2164     617.3855   1425.20325     752.2164     617.3855
   1425.18799     752.9042     618.5798   1425.18799     752.9042     618.5798
   1425.17273     753.0405     619.1722   1425.17273     753.0405     619.1722
   1425.15747     754.1539     620.8455   1425.15747     754.1539     620.8455
   1425.14221     754.5939     621.6246   1425.14221     754.5939     621.6246
   1425.12695     755.3992     621.8919   1425.12695     755.3992     621.8919
   1425.11169     757.2438     624.5379   1425.11169     757.2438     624.5379
   1425.09644     756.1957     625.6668   1425.09644     756.1957     625.6668
   1425.08118     757.3565     627.4983   1425.08118     757.3565     627.4983
   1425.06592     757.9991     628.4309   1425.06592     757.9991     628.4309
   1425.05066     758.4837     629.2870   1425.05066     758.4837     629.2870
   1425.03540     758.7251     630.9493   1425.03540     758.7251     630.9493
   1425.02014     759.2409     631.5644   1425.02014     759.2409     631.5644
   1425.00488     758.9966     632.6538   1425.00488     758.9966     632.6538
   1424.98962     759.7499     634.2029   1424.98962     759.7499     634.2029
   1424.97437     760.9589     635.1472   1424.97437     760.9589     635.1472
   1424.95911     761.3759     636.4788   1424.95911     761.3759     636.4788
   1424.94385     762.0502     637.1731   1424.94385     762.0502     637.1731
   1424.92859     763.2488     638.0133   1424.92859     763.2488     638.0133
   1424.91333     762.6990     638.5427   1424.91333     762.6990     638.5427
   1424.89807     762.3839     640.3317   1424.89807     762.3839     640.3317
   1424.88281     763.1566     640.6342   1424.88281     763.1566     640.6342
   1424.86755     764.0636     642.4955   1424.86755     764.0636     642.4955
   1424.85229     763.1995     643.3323   1424.85229     763.1995     643.3323
   1424.83704     763.1918     644.1025   1424.83704     763.1918     644.1025
   1424.82178     764.0450     644.8942   1424.82178     764.0450     644.8942
   1424.80652     763.3822     645.6015   1424.80652     763.3822     645.6015
   1424.79126     765.0148     646.9794   1424.79126     765.0148     646.9794
   1424.77600     763.5652     648.0428   1424.77600     763.5652     648.0428
   1424.76074     765.4222     649.1791   1424.76074     765.4222     649.1791
   1424.74548     764.5839     648.7278   1424.74548     764.5839     648.7278
   1424.73022     765.1472     650.3087   1424.73022     765.1472     650.3087
   1424.71497     766.0136     651.6721   1424.71497     766.0136     651.6721
   1424.69971     764.1341     652.0312   1424.69971     764.1341     652.0312
   1424.68445     765.9562     653.3810   1424.68445     765.9562     653.3810
   1424.66919     765.4662     653.0357   1424.66919     765.4662     653.0357
   1424.65393     764.8805     654.1081   1424.65393     764.8805     654.1081
   1424.63867     764.3010     655.3897   1424.63867     764.3010     655.3897
   1424.62341     764.7461     656.3140   1424.62341     764.7461     656.3140
   1424.60815     765.1281     655.7637   1424.60815     765.1281     655.7637
   1424.59290     765.1846     658.4482   1424.59290     765.1846     658.4482
   1424.57764     764.8331     659.3172   1424.57764     764.8331     659.3172
   1424.56238     766.2380     658.9703   1424.56238     766.2380     658.9703
   1424.54712     765.1811     659.4355   1424.54712     765.1811     659.4355
   1424.53186     765.2101     660.6686   1424.53186     765.2101     660.6686
   1424.51660     764.9052     660.9175   1424.51660     764.9052     660.9175
   1424.50134     765.2015     662.8398   1424.50134     765.2015     662.8398
   1424.48608     765.3285     662.6560   1424.48608     765.3285     662.6560
   1424.47083     766.5985     663.6658   1424.47083     766.5985     663.6658
   1424.45557     765.9484     663.6969   1424.45557     765.9484     663.6969
   1424.44031     765.3363     665.0911   1424.44031     765.3363     665.0911
   1424.42505     764.2656     665.4634   1424.42505     764.2656     665.4634
   1424.40979     765.2227     666.0265   1424.40979     765.2227     666.0265
   1424.39453     765.6542     666.5274   1424.39453     765.6542     666.5274
   1424.37927     763.8708     666.5608   1424.37927     763.8708     666.5608
   1424.36401     764.2658     667.8124   1424.36401     764.2658     667.8124
   1424.34875     764.1038     667.2249   1424.34875     764.1038     667.2249
   1424.33350     763.4786     668.6389   1424.33350     763.4786     668.6389
   1424.31824     764.4461     668.7441   1424.31824     764.4461     668.7441
   1424.30298     763.9895     669.9738   1424.30298     763.9895     669.9738
   1424.28772     764.0857     671.2782   1424.28772     764.0857     671.2782
   1424.27246     763.5286     670.2491   1424.27246     763.5286     670.2491
   1424.25720     762.5547     670.4843   1424.25720     762.5547     670.4843
   1424.24194     761.6865     672.0071   1424.24194     761.6865     672.0071
   1424.22668     762.5501     671.9266   1424.22668     762.5501     671.9266
   1424.21143     762.4152     672.7148   1424.21143     762.4152     672.7148
   1424.19617     762.4384     673.4616   1424.19617     762.4384     673.4616
   1424.18091     761.7336     674.7109   1424.18091     761.7336     674.7109
   1424.16565     762.4916     674.1384   1424.16565     762.4916     674.1384
