#     FILENAME=!Skynet_57528_lach-hhg-159_20521_20983.cyb.fits
#     BASENAME=Skynet_57528_lach-hhg-159_20521_20983
#     SRC_NAME=lach-hhg-159
#     OBSERVER=hhgmadison16_9500
#     DATE_OBS=2016-05-20T17:55:54.430
#        OBSID=20521
#      SCANNUM=20983
#          MJD=57528.7482
#          UTC=64643
#     SCANTYPE=track
#     DATAMODE=HIRES
#     TUNEFREQ=1420.0000
# Actual_FREQ1=1420.0000
# Actual_FREQ2=1420.0000
#    LO1Tuning=6870.000
#     RFFILTER=1355_1435
#        OBSBW=-15.6250
#        NCHAN=1024 
#        FOCUS=37.1368
#           RA=04:43:12.42
#          DEC=46:00:16.76
#      RA(hrs)=4.720100
#     DEC(deg)=46.004700
#    AZIM(deg)=15.610
#    ELEV(deg)=81.995
#     IFattens=10.00, 9.00
#      WARNING=None
#    TCAL_XL1=7.9635
#    TCAL_YR1=9.1340
#    TCAL_XL2=7.9635
#    TCAL_YR2=9.1340
#     TRX_XL1=11.7060
#     TRX_YR1=11.7060
#     TRX_XL2=11.7060
#     TRX_YR2=11.7060
#        TAVE=1.0000
#Freq1(MHz)          XL1          YR1  Freq2(MHz)          XL2          YR2 

   1427.81250     376.1449     341.1404   1427.81250     376.1449     341.1404
   1427.79724     376.1759     342.5718   1427.79724     376.1759     342.5718
   1427.78198     377.5950     344.3206   1427.78198     377.5950     344.3206
   1427.76672     378.2509     345.5903   1427.76672     378.2509     345.5903
   1427.75146     378.3492     347.7526   1427.75146     378.3492     347.7526
   1427.73621     378.8515     349.4863   1427.73621     378.8515     349.4863
   1427.72095     380.3307     351.4040   1427.72095     380.3307     351.4040
   1427.70569     380.6960     353.3346   1427.70569     380.6960     353.3346
   1427.69043     382.3173     355.1899   1427.69043     382.3173     355.1899
   1427.67517     382.8849     357.0697   1427.67517     382.8849     357.0697
   1427.65991     384.0203     358.8878   1427.65991     384.0203     358.8878
   1427.64465     385.6645     361.1171   1427.64465     385.6645     361.1171
   1427.62939     386.2385     363.0498   1427.62939     386.2385     363.0498
   1427.61414     387.8864     365.0927   1427.61414     387.8864     365.0927
   1427.59888     388.9574     367.1453   1427.59888     388.9574     367.1453
   1427.58362     390.6720     369.9718   1427.58362     390.6720     369.9718
   1427.56836     391.6691     371.7740   1427.56836     391.6691     371.7740
   1427.55310     393.1434     374.1607   1427.55310     393.1434     374.1607
   1427.53784     395.0102     376.3895   1427.53784     395.0102     376.3895
   1427.52258     396.5261     378.8251   1427.52258     396.5261     378.8251
   1427.50732     397.7845     381.1763   1427.50732     397.7845     381.1763
   1427.49207     399.6841     384.3886   1427.49207     399.6841     384.3886
   1427.47681     400.8293     385.6840   1427.47681     400.8293     385.6840
   1427.46155     403.6261     388.5916   1427.46155     403.6261     388.5916
   1427.44629     404.8905     391.1674   1427.44629     404.8905     391.1674
   1427.43103     406.4653     393.3679   1427.43103     406.4653     393.3679
   1427.41577     408.8107     396.1623   1427.41577     408.8107     396.1623
   1427.40051     410.0347     399.2509   1427.40051     410.0347     399.2509
   1427.38525     412.4428     401.8126   1427.38525     412.4428     401.8126
   1427.37000     414.5785     403.6099   1427.37000     414.5785     403.6099
   1427.35474     415.9725     406.3394   1427.35474     415.9725     406.3394
   1427.33948     418.8132     409.3717   1427.33948     418.8132     409.3717
   1427.32422     420.5757     412.7875   1427.32422     420.5757     412.7875
   1427.30896     422.4151     414.3685   1427.30896     422.4151     414.3685
   1427.29370     425.3223     417.5711   1427.29370     425.3223     417.5711
   1427.27844     426.4662     420.4399   1427.27844     426.4662     420.4399
   1427.26318     429.1711     422.5795   1427.26318     429.1711     422.5795
   1427.24792     431.7998     425.5300   1427.24792     431.7998     425.5300
   1427.23267     433.4547     428.6456   1427.23267     433.4547     428.6456
   1427.21741     436.4456     431.2266   1427.21741     436.4456     431.2266
   1427.20215     439.0371     433.7386   1427.20215     439.0371     433.7386
   1427.18689     441.0249     436.3895   1427.18689     441.0249     436.3895
   1427.17163     443.1700     439.2319   1427.17163     443.1700     439.2319
   1427.15637     445.9981     442.0872   1427.15637     445.9981     442.0872
   1427.14111     448.8325     445.0424   1427.14111     448.8325     445.0424
   1427.12585     450.7188     447.8786   1427.12585     450.7188     447.8786
   1427.11060     454.3521     451.0407   1427.11060     454.3521     451.0407
   1427.09534     456.2376     453.7295   1427.09534     456.2376     453.7295
   1427.08008     459.4644     456.1648   1427.08008     459.4644     456.1648
   1427.06482     462.3526     459.2180   1427.06482     462.3526     459.2180
   1427.04956     464.0727     462.3158   1427.04956     464.0727     462.3158
   1427.03430     467.4676     464.8800   1427.03430     467.4676     464.8800
   1427.01904     469.8389     467.9741   1427.01904     469.8389     467.9741
   1427.00378     472.3026     469.5739   1427.00378     472.3026     469.5739
   1426.98853     475.7991     472.5060   1426.98853     475.7991     472.5060
   1426.97327     477.9843     475.5220   1426.97327     477.9843     475.5220
   1426.95801     481.1023     478.5607   1426.95801     481.1023     478.5607
   1426.94275     483.4572     481.1370   1426.94275     483.4572     481.1370
   1426.92749     487.4730     484.8098   1426.92749     487.4730     484.8098
   1426.91223     489.6448     486.1382   1426.91223     489.6448     486.1382
   1426.89697     493.1399     489.1090   1426.89697     493.1399     489.1090
   1426.88171     495.5848     491.8965   1426.88171     495.5848     491.8965
   1426.86646     498.5441     494.9656   1426.86646     498.5441     494.9656
   1426.85120     501.9666     497.0201   1426.85120     501.9666     497.0201
   1426.83594     504.1639     499.8199   1426.83594     504.1639     499.8199
   1426.82068     507.4492     502.7019   1426.82068     507.4492     502.7019
   1426.80542     511.3907     504.7720   1426.80542     511.3907     504.7720
   1426.79016     513.4418     508.1759   1426.79016     513.4418     508.1759
   1426.77490     516.5078     511.1129   1426.77490     516.5078     511.1129
   1426.75964     519.3168     512.7373   1426.75964     519.3168     512.7373
   1426.74438     521.7380     515.3252   1426.74438     521.7380     515.3252
   1426.72913     526.0426     517.7651   1426.72913     526.0426     517.7651
   1426.71387     529.0109     520.1051   1426.71387     529.0109     520.1051
   1426.69861     531.8503     523.5110   1426.69861     531.8503     523.5110
   1426.68335     535.0263     525.2812   1426.68335     535.0263     525.2812
   1426.66809     537.8168     527.1143   1426.66809     537.8168     527.1143
   1426.65283     540.3123     529.1514   1426.65283     540.3123     529.1514
   1426.63757     544.3044     531.8411   1426.63757     544.3044     531.8411
   1426.62231     549.8993     538.2823   1426.62231     549.8993     538.2823
   1426.60706     550.3585     538.6990   1426.60706     550.3585     538.6990
   1426.59180     552.4426     539.4442   1426.59180     552.4426     539.4442
   1426.57654     556.6015     540.5077   1426.57654     556.6015     540.5077
   1426.56128     558.6980     543.4990   1426.56128     558.6980     543.4990
   1426.54602     561.7779     545.3856   1426.54602     561.7779     545.3856
   1426.53076     565.0282     548.0069   1426.53076     565.0282     548.0069
   1426.51550     568.3848     549.5469   1426.51550     568.3848     549.5469
   1426.50024     571.6208     552.3986   1426.50024     571.6208     552.3986
   1426.48499     574.4397     553.6517   1426.48499     574.4397     553.6517
   1426.46973     576.7992     555.5615   1426.46973     576.7992     555.5615
   1426.45447     580.3845     558.2746   1426.45447     580.3845     558.2746
   1426.43921     583.8845     559.8366   1426.43921     583.8845     559.8366
   1426.42395     586.9801     562.3848   1426.42395     586.9801     562.3848
   1426.40869     590.4852     564.6606   1426.40869     590.4852     564.6606
   1426.39343     592.9281     566.0281   1426.39343     592.9281     566.0281
   1426.37817     595.4482     568.4163   1426.37817     595.4482     568.4163
   1426.36292     598.1591     569.7493   1426.36292     598.1591     569.7493
   1426.34766     601.5406     571.8382   1426.34766     601.5406     571.8382
   1426.33240     604.9755     573.3715   1426.33240     604.9755     573.3715
   1426.31714     607.6735     575.4317   1426.31714     607.6735     575.4317
   1426.30188     610.1243     577.4466   1426.30188     610.1243     577.4466
   1426.28662     612.4039     578.4412   1426.28662     612.4039     578.4412
   1426.27136     616.7148     579.9395   1426.27136     616.7148     579.9395
   1426.25610     618.1979     581.5608   1426.25610     618.1979     581.5608
   1426.24084     622.3179     582.3628   1426.24084     622.3179     582.3628
   1426.22559     624.4501     585.1766   1426.22559     624.4501     585.1766
   1426.21033     627.4124     585.6015   1426.21033     627.4124     585.6015
   1426.19507     629.4775     587.5243   1426.19507     629.4775     587.5243
   1426.17981     633.7830     588.7411   1426.17981     633.7830     588.7411
   1426.16455     636.4731     591.5305   1426.16455     636.4731     591.5305
   1426.14929     639.0903     592.6091   1426.14929     639.0903     592.6091
   1426.13403     641.3380     593.9956   1426.13403     641.3380     593.9956
   1426.11877     643.6275     594.4741   1426.11877     643.6275     594.4741
   1426.10352     646.5905     596.5598   1426.10352     646.5905     596.5598
   1426.08826     649.5217     595.7250   1426.08826     649.5217     595.7250
   1426.07300     652.3997     598.2277   1426.07300     652.3997     598.2277
   1426.05774     653.9413     599.8691   1426.05774     653.9413     599.8691
   1426.04248     657.0621     600.4273   1426.04248     657.0621     600.4273
   1426.02722     659.1334     601.6906   1426.02722     659.1334     601.6906
   1426.01196     662.9950     604.2641   1426.01196     662.9950     604.2641
   1425.99670     663.8287     603.6212   1425.99670     663.8287     603.6212
   1425.98145     666.7817     605.3448   1425.98145     666.7817     605.3448
   1425.96619     669.6968     606.9646   1425.96619     669.6968     606.9646
   1425.95093     672.2782     607.7971   1425.95093     672.2782     607.7971
   1425.93567     673.5693     608.2453   1425.93567     673.5693     608.2453
   1425.92041     676.4333     609.5532   1425.92041     676.4333     609.5532
   1425.90515     678.9736     609.8427   1425.90515     678.9736     609.8427
   1425.88989     681.2780     611.4079   1425.88989     681.2780     611.4079
   1425.87463     683.3857     612.5274   1425.87463     683.3857     612.5274
   1425.85938     685.5755     613.7276   1425.85938     685.5755     613.7276
   1425.84412     688.5636     615.0779   1425.84412     688.5636     615.0779
   1425.82886     690.5566     614.5293   1425.82886     690.5566     614.5293
   1425.81360     692.5380     615.9270   1425.81360     692.5380     615.9270
   1425.79834     693.4615     615.5524   1425.79834     693.4615     615.5524
   1425.78308     697.9200     618.9014   1425.78308     697.9200     618.9014
   1425.76782     698.6407     618.7100   1425.76782     698.6407     618.7100
   1425.75256     700.1155     619.6593   1425.75256     700.1155     619.6593
   1425.73730     702.5800     619.3510   1425.73730     702.5800     619.3510
   1425.72205     704.2004     619.7650   1425.72205     704.2004     619.7650
   1425.70679     706.4169     621.2546   1425.70679     706.4169     621.2546
   1425.69153     707.8414     621.7726   1425.69153     707.8414     621.7726
   1425.67627     710.6854     622.5051   1425.67627     710.6854     622.5051
   1425.66101     712.4899     623.3725   1425.66101     712.4899     623.3725
   1425.64575     713.8244     622.7666   1425.64575     713.8244     622.7666
   1425.63049     715.8412     624.3384   1425.63049     715.8412     624.3384
   1425.61523     717.5040     625.1127   1425.61523     717.5040     625.1127
   1425.59998     719.3072     624.6352   1425.59998     719.3072     624.6352
   1425.58472     720.4277     625.7272   1425.58472     720.4277     625.7272
   1425.56946     721.5273     626.8970   1425.56946     721.5273     626.8970
   1425.55420     724.0761     626.6520   1425.55420     724.0761     626.6520
   1425.53894     724.8051     627.2469   1425.53894     724.8051     627.2469
   1425.52368     726.9574     627.8005   1425.52368     726.9574     627.8005
   1425.50842     727.8817     627.6055   1425.50842     727.8817     627.6055
   1425.49316     730.3420     628.2559   1425.49316     730.3420     628.2559
   1425.47791     731.3022     628.7382   1425.47791     731.3022     628.7382
   1425.46265     733.5076     628.2661   1425.46265     733.5076     628.2661
   1425.44739     734.5845     629.5466   1425.44739     734.5845     629.5466
   1425.43213     735.9119     629.5383   1425.43213     735.9119     629.5383
   1425.41687     737.3863     629.9187   1425.41687     737.3863     629.9187
   1425.40161     737.9811     630.6941   1425.40161     737.9811     630.6941
   1425.38635     740.5212     631.2439   1425.38635     740.5212     631.2439
   1425.37109     741.2597     630.1454   1425.37109     741.2597     630.1454
   1425.35583     740.9646     631.5163   1425.35583     740.9646     631.5163
   1425.34058     741.9048     630.7624   1425.34058     741.9048     630.7624
   1425.32532     744.9122     631.0579   1425.32532     744.9122     631.0579
   1425.31006     746.0281     630.9883   1425.31006     746.0281     630.9883
   1425.29480     746.4186     632.1417   1425.29480     746.4186     632.1417
   1425.27954     748.7229     632.6465   1425.27954     748.7229     632.6465
   1425.26428     748.4494     632.2734   1425.26428     748.4494     632.2734
   1425.24902     748.7595     631.7207   1425.24902     748.7595     631.7207
   1425.23376     751.4499     631.3769   1425.23376     751.4499     631.3769
   1425.21851     752.4725     632.2827   1425.21851     752.4725     632.2827
   1425.20325     751.8170     631.8126   1425.20325     751.8170     631.8126
   1425.18799     753.7630     633.2614   1425.18799     753.7630     633.2614
   1425.17273     753.7095     631.6470   1425.17273     753.7095     631.6470
   1425.15747     755.1982     633.6275   1425.15747     755.1982     633.6275
   1425.14221     756.0193     632.6511   1425.14221     756.0193     632.6511
   1425.12695     755.8112     631.4316   1425.12695     755.8112     631.4316
   1425.11169     758.4283     631.7333   1425.11169     758.4283     631.7333
   1425.09644     757.1014     632.2145   1425.09644     757.1014     632.2145
   1425.08118     759.0930     631.1406   1425.08118     759.0930     631.1406
   1425.06592     758.8898     631.2997   1425.06592     758.8898     631.2997
   1425.05066     760.4164     631.3155   1425.05066     760.4164     631.3155
   1425.03540     760.0756     631.7515   1425.03540     760.0756     631.7515
   1425.02014     761.2395     632.3087   1425.02014     761.2395     632.3087
   1425.00488     762.6968     631.6033   1425.00488     762.6968     631.6033
   1424.98962     761.9352     631.8329   1424.98962     761.9352     631.8329
   1424.97437     762.9246     631.7689   1424.97437     762.9246     631.7689
   1424.95911     763.5519     631.3094   1424.95911     763.5519     631.3094
   1424.94385     763.6559     630.4626   1424.94385     763.6559     630.4626
   1424.92859     764.5876     631.1894   1424.92859     764.5876     631.1894
   1424.91333     764.0778     631.2092   1424.91333     764.0778     631.2092
   1424.89807     764.5095     631.2167   1424.89807     764.5095     631.2167
   1424.88281     765.3820     630.1962   1424.88281     765.3820     630.1962
   1424.86755     765.9626     629.6063   1424.86755     765.9626     629.6063
   1424.85229     766.0674     629.4022   1424.85229     766.0674     629.4022
   1424.83704     765.4203     629.6948   1424.83704     765.4203     629.6948
   1424.82178     765.2726     629.4812   1424.82178     765.2726     629.4812
   1424.80652     765.9539     629.4452   1424.80652     765.9539     629.4452
   1424.79126     765.3728     629.4937   1424.79126     765.3728     629.4937
   1424.77600     766.6010     628.9568   1424.77600     766.6010     628.9568
   1424.76074     766.5171     628.1337   1424.76074     766.5171     628.1337
   1424.74548     767.7394     627.8905   1424.74548     767.7394     627.8905
   1424.73022     767.1650     628.0800   1424.73022     767.1650     628.0800
   1424.71497     767.1518     628.2347   1424.71497     767.1518     628.2347
   1424.69971     766.6955     627.2846   1424.69971     766.6955     627.2846
   1424.68445     767.5142     626.7158   1424.68445     767.5142     626.7158
   1424.66919     767.0746     626.9852   1424.66919     767.0746     626.9852
   1424.65393     767.2782     626.3828   1424.65393     767.2782     626.3828
   1424.63867     767.5370     625.6472   1424.63867     767.5370     625.6472
   1424.62341     767.4319     626.3118   1424.62341     767.4319     626.3118
   1424.60815     767.4521     626.0728   1424.60815     767.4521     626.0728
   1424.59290     767.6360     624.8534   1424.59290     767.6360     624.8534
   1424.57764     767.8725     624.4611   1424.57764     767.8725     624.4611
   1424.56238     766.8923     623.7757   1424.56238     766.8923     623.7757
   1424.54712     767.5830     623.9506   1424.54712     767.5830     623.9506
   1424.53186     766.5662     623.6066   1424.53186     766.5662     623.6066
   1424.51660     767.7257     623.6005   1424.51660     767.7257     623.6005
   1424.50134     767.3079     622.5886   1424.50134     767.3079     622.5886
   1424.48608     767.1031     621.4716   1424.48608     767.1031     621.4716
   1424.47083     765.1849     622.1312   1424.47083     765.1849     622.1312
   1424.45557     766.7172     621.4078   1424.45557     766.7172     621.4078
   1424.44031     766.9711     621.2000   1424.44031     766.9711     621.2000
   1424.42505     765.8364     621.2218   1424.42505     765.8364     621.2218
   1424.40979     765.0178     619.7235   1424.40979     765.0178     619.7235
   1424.39453     765.4221     620.3575   1424.39453     765.4221     620.3575
   1424.37927     765.0439     619.1678   1424.37927     765.0439     619.1678
   1424.36401     765.8857     618.9735   1424.36401     765.8857     618.9735
   1424.34875     766.4906     618.3929   1424.34875     766.4906     618.3929
   1424.33350     764.8099     619.0161   1424.33350     764.8099     619.0161
   1424.31824     765.2321     619.5037   1424.31824     765.2321     619.5037
   1424.30298     765.3859     617.1318   1424.30298     765.3859     617.1318
   1424.28772     764.6836     616.8649   1424.28772     764.6836     616.8649
   1424.27246     763.8968     617.0897   1424.27246     763.8968     617.0897
   1424.25720     763.4407     616.4173   1424.25720     763.4407     616.4173
   1424.24194     764.4669     614.9050   1424.24194     764.4669     614.9050
   1424.22668     762.2319     615.2414   1424.22668     762.2319     615.2414
   1424.21143     762.5059     614.7370   1424.21143     762.5059     614.7370
   1424.19617     762.6428     614.3462   1424.19617     762.6428     614.3462
   1424.18091     762.2010     613.0488   1424.18091     762.2010     613.0488
   1424.16565     760.9280     612.7828   1424.16565     760.9280     612.7828
