#     FILENAME=!Skynet_57528_lach-hhg-149_20490_20973.cyb.fits
#     BASENAME=Skynet_57528_lach-hhg-149_20490_20973
#     SRC_NAME=lach-hhg-149
#     OBSERVER=hhgmadison16_9500
#     DATE_OBS=2016-05-20T17:35:38.680
#        OBSID=20490
#      SCANNUM=20973
#          MJD=57528.7341
#          UTC=63427
#     SCANTYPE=track
#     DATAMODE=HIRES
#     TUNEFREQ=1420.0000
# Actual_FREQ1=1420.0000
# Actual_FREQ2=1420.0000
#    LO1Tuning=6870.000
#     RFFILTER=1355_1435
#        OBSBW=-15.6250
#        NCHAN=1024 
#        FOCUS=37.0709
#           RA=03:59:26.36
#          DEC=53:04:40.01
#      RA(hrs)=3.990700
#     DEC(deg)=53.077800
#    AZIM(deg)=353.150
#    ELEV(deg)=75.118
#     IFattens=10.00, 9.00
#      WARNING=None
#    TCAL_XL1=7.9635
#    TCAL_YR1=9.1340
#    TCAL_XL2=7.9635
#    TCAL_YR2=9.1340
#     TRX_XL1=11.7060
#     TRX_YR1=11.7060
#     TRX_XL2=11.7060
#     TRX_YR2=11.7060
#        TAVE=1.0000
#Freq1(MHz)          XL1          YR1  Freq2(MHz)          XL2          YR2 

   1427.81250     380.9890     335.0371   1427.81250     380.9890     335.0371
   1427.79724     381.6137     335.7533   1427.79724     381.6137     335.7533
   1427.78198     382.2255     336.8157   1427.78198     382.2255     336.8157
   1427.76672     383.0987     338.3730   1427.76672     383.0987     338.3730
   1427.75146     384.1546     340.3821   1427.75146     384.1546     340.3821
   1427.73621     384.6395     341.5950   1427.73621     384.6395     341.5950
   1427.72095     385.9374     343.4039   1427.72095     385.9374     343.4039
   1427.70569     386.9818     344.4720   1427.70569     386.9818     344.4720
   1427.69043     387.8008     346.4888   1427.69043     387.8008     346.4888
   1427.67517     388.5855     348.2518   1427.67517     388.5855     348.2518
   1427.65991     389.9176     349.1545   1427.65991     389.9176     349.1545
   1427.64465     391.3093     351.4703   1427.64465     391.3093     351.4703
   1427.62939     392.1175     352.8233   1427.62939     392.1175     352.8233
   1427.61414     393.2142     354.3992   1427.61414     393.2142     354.3992
   1427.59888     395.8500     356.2135   1427.59888     395.8500     356.2135
   1427.58362     396.2446     357.7989   1427.58362     396.2446     357.7989
   1427.56836     397.9855     359.8480   1427.56836     397.9855     359.8480
   1427.55310     399.1871     361.6458   1427.55310     399.1871     361.6458
   1427.53784     400.8267     364.2727   1427.53784     400.8267     364.2727
   1427.52258     402.9085     365.3871   1427.52258     402.9085     365.3871
   1427.50732     403.7966     368.1251   1427.50732     403.7966     368.1251
   1427.49207     405.8203     369.0520   1427.49207     405.8203     369.0520
   1427.47681     407.3364     371.7989   1427.47681     407.3364     371.7989
   1427.46155     409.4948     373.5373   1427.46155     409.4948     373.5373
   1427.44629     411.3158     376.0779   1427.44629     411.3158     376.0779
   1427.43103     413.1971     377.7895   1427.43103     413.1971     377.7895
   1427.41577     414.3047     379.4781   1427.41577     414.3047     379.4781
   1427.40051     417.2005     381.9798   1427.40051     417.2005     381.9798
   1427.38525     418.8489     383.5973   1427.38525     418.8489     383.5973
   1427.37000     421.2249     386.2952   1427.37000     421.2249     386.2952
   1427.35474     422.8044     387.7054   1427.35474     422.8044     387.7054
   1427.33948     425.1630     390.9107   1427.33948     425.1630     390.9107
   1427.32422     427.8489     392.2607   1427.32422     427.8489     392.2607
   1427.30896     429.8664     395.0229   1427.30896     429.8664     395.0229
   1427.29370     432.4959     397.4095   1427.29370     432.4959     397.4095
   1427.27844     434.2270     398.9029   1427.27844     434.2270     398.9029
   1427.26318     436.5467     401.3753   1427.26318     436.5467     401.3753
   1427.24792     438.8022     404.1022   1427.24792     438.8022     404.1022
   1427.23267     441.2200     405.7602   1427.23267     441.2200     405.7602
   1427.21741     443.5359     408.2668   1427.21741     443.5359     408.2668
   1427.20215     446.2787     410.3386   1427.20215     446.2787     410.3386
   1427.18689     449.1615     412.6380   1427.18689     449.1615     412.6380
   1427.17163     450.7710     414.5791   1427.17163     450.7710     414.5791
   1427.15637     454.0591     417.4430   1427.15637     454.0591     417.4430
   1427.14111     456.6281     419.2563   1427.14111     456.6281     419.2563
   1427.12585     459.6643     421.6184   1427.12585     459.6643     421.6184
   1427.11060     461.8426     423.3516   1427.11060     461.8426     423.3516
   1427.09534     464.0321     426.4949   1427.09534     464.0321     426.4949
   1427.08008     467.6474     428.3403   1427.08008     467.6474     428.3403
   1427.06482     470.3423     430.5368   1427.06482     470.3423     430.5368
   1427.04956     473.2739     433.0607   1427.04956     473.2739     433.0607
   1427.03430     475.3587     435.8984   1427.03430     475.3587     435.8984
   1427.01904     478.8752     438.0190   1427.01904     478.8752     438.0190
   1427.00378     481.3675     440.4506   1427.00378     481.3675     440.4506
   1426.98853     484.2601     442.8604   1426.98853     484.2601     442.8604
   1426.97327     487.5373     445.2990   1426.97327     487.5373     445.2990
   1426.95801     489.8103     446.9184   1426.95801     489.8103     446.9184
   1426.94275     493.0279     449.7788   1426.94275     493.0279     449.7788
   1426.92749     496.0683     451.0963   1426.92749     496.0683     451.0963
   1426.91223     499.0142     453.7850   1426.91223     499.0142     453.7850
   1426.89697     501.8884     456.0204   1426.89697     501.8884     456.0204
   1426.88171     505.2396     458.0570   1426.88171     505.2396     458.0570
   1426.86646     508.0593     460.5514   1426.86646     508.0593     460.5514
   1426.85120     510.9868     463.2194   1426.85120     510.9868     463.2194
   1426.83594     513.9662     464.7878   1426.83594     513.9662     464.7878
   1426.82068     517.3878     467.3481   1426.82068     517.3878     467.3481
   1426.80542     520.1995     469.5090   1426.80542     520.1995     469.5090
   1426.79016     523.9495     472.2427   1426.79016     523.9495     472.2427
   1426.77490     526.8184     474.1065   1426.77490     526.8184     474.1065
   1426.75964     529.9658     475.5118   1426.75964     529.9658     475.5118
   1426.74438     533.3542     478.3601   1426.74438     533.3542     478.3601
   1426.72913     536.0250     480.3301   1426.72913     536.0250     480.3301
   1426.71387     539.7670     481.9206   1426.71387     539.7670     481.9206
   1426.69861     541.9459     484.5862   1426.69861     541.9459     484.5862
   1426.68335     545.8119     487.1596   1426.68335     545.8119     487.1596
   1426.66809     549.5078     489.3487   1426.66809     549.5078     489.3487
   1426.65283     552.1669     491.1317   1426.65283     552.1669     491.1317
   1426.63757     555.0180     492.5994   1426.63757     555.0180     492.5994
   1426.62231     565.1368     497.6743   1426.62231     565.1368     497.6743
   1426.60706     562.0192     497.6936   1426.60706     562.0192     497.6936
   1426.59180     564.7549     499.2308   1426.59180     564.7549     499.2308
   1426.57654     566.7295     501.1589   1426.57654     566.7295     501.1589
   1426.56128     571.7258     503.2657   1426.56128     571.7258     503.2657
   1426.54602     574.0899     505.4925   1426.54602     574.0899     505.4925
   1426.53076     576.8870     506.3147   1426.53076     576.8870     506.3147
   1426.51550     580.4545     508.6615   1426.51550     580.4545     508.6615
   1426.50024     584.0479     511.0552   1426.50024     584.0479     511.0552
   1426.48499     585.6882     512.3853   1426.48499     585.6882     512.3853
   1426.46973     590.4182     515.2112   1426.46973     590.4182     515.2112
   1426.45447     592.9417     517.3760   1426.45447     592.9417     517.3760
   1426.43921     595.6144     518.5138   1426.43921     595.6144     518.5138
   1426.42395     599.1445     520.5017   1426.42395     599.1445     520.5017
   1426.40869     601.8334     521.6869   1426.40869     601.8334     521.6869
   1426.39343     605.1501     524.2732   1426.39343     605.1501     524.2732
   1426.37817     607.7097     525.2422   1426.37817     607.7097     525.2422
   1426.36292     611.2750     527.7236   1426.36292     611.2750     527.7236
   1426.34766     615.0804     530.1961   1426.34766     615.0804     530.1961
   1426.33240     617.5452     531.3738   1426.33240     617.5452     531.3738
   1426.31714     621.3506     532.3865   1426.31714     621.3506     532.3865
   1426.30188     624.8253     534.0430   1426.30188     624.8253     534.0430
   1426.28662     625.8608     535.0709   1426.28662     625.8608     535.0709
   1426.27136     629.0259     537.9182   1426.27136     629.0259     537.9182
   1426.25610     632.0098     538.9457   1426.25610     632.0098     538.9457
   1426.24084     635.5876     541.2187   1426.24084     635.5876     541.2187
   1426.22559     638.6072     541.9088   1426.22559     638.6072     541.9088
   1426.21033     641.1754     544.5592   1426.21033     641.1754     544.5592
   1426.19507     643.0914     545.5257   1426.19507     643.0914     545.5257
   1426.17981     647.4351     547.3733   1426.17981     647.4351     547.3733
   1426.16455     649.3981     549.0351   1426.16455     649.3981     549.0351
   1426.14929     652.0700     550.1132   1426.14929     652.0700     550.1132
   1426.13403     654.3285     551.3743   1426.13403     654.3285     551.3743
   1426.11877     658.2058     552.7347   1426.11877     658.2058     552.7347
   1426.10352     661.1554     554.1013   1426.10352     661.1554     554.1013
   1426.08826     663.7795     555.7748   1426.08826     663.7795     555.7748
   1426.07300     666.0545     557.2895   1426.07300     666.0545     557.2895
   1426.05774     668.2308     558.2767   1426.05774     668.2308     558.2767
   1426.04248     672.3986     560.0035   1426.04248     672.3986     560.0035
   1426.02722     673.7375     561.2415   1426.02722     673.7375     561.2415
   1426.01196     676.6302     562.8566   1426.01196     676.6302     562.8566
   1425.99670     678.6987     563.9108   1425.99670     678.6987     563.9108
   1425.98145     680.9001     565.6034   1425.98145     680.9001     565.6034
   1425.96619     685.0865     567.2433   1425.96619     685.0865     567.2433
   1425.95093     686.3889     569.1160   1425.95093     686.3889     569.1160
   1425.93567     689.0616     568.9363   1425.93567     689.0616     568.9363
   1425.92041     691.6484     570.2280   1425.92041     691.6484     570.2280
   1425.90515     693.7061     570.4517   1425.90515     693.7061     570.4517
   1425.88989     696.6275     572.4281   1425.88989     696.6275     572.4281
   1425.87463     699.1165     574.3546   1425.87463     699.1165     574.3546
   1425.85938     700.5372     575.0796   1425.85938     700.5372     575.0796
   1425.84412     702.9297     575.4361   1425.84412     702.9297     575.4361
   1425.82886     706.2177     577.4365   1425.82886     706.2177     577.4365
   1425.81360     708.6058     578.4346   1425.81360     708.6058     578.4346
   1425.79834     710.8069     579.0066   1425.79834     710.8069     579.0066
   1425.78308     712.2067     579.1000   1425.78308     712.2067     579.1000
   1425.76782     713.7178     581.4991   1425.76782     713.7178     581.4991
   1425.75256     716.0469     582.7185   1425.75256     716.0469     582.7185
   1425.73730     718.7624     583.7151   1425.73730     718.7624     583.7151
   1425.72205     720.3599     584.3333   1425.72205     720.3599     584.3333
   1425.70679     722.4454     586.3432   1425.70679     722.4454     586.3432
   1425.69153     724.7919     585.2448   1425.69153     724.7919     585.2448
   1425.67627     726.7637     587.2458   1425.67627     726.7637     587.2458
   1425.66101     728.1074     587.9937   1425.66101     728.1074     587.9937
   1425.64575     730.1696     588.6999   1425.64575     730.1696     588.6999
   1425.63049     732.6942     589.7807   1425.63049     732.6942     589.7807
   1425.61523     734.3043     590.3807   1425.61523     734.3043     590.3807
   1425.59998     735.6404     591.7678   1425.59998     735.6404     591.7678
   1425.58472     737.0633     592.5947   1425.58472     737.0633     592.5947
   1425.56946     739.2415     593.0781   1425.56946     739.2415     593.0781
   1425.55420     740.7916     594.5692   1425.55420     740.7916     594.5692
   1425.53894     742.5240     594.8714   1425.53894     742.5240     594.8714
   1425.52368     742.4543     596.2885   1425.52368     742.4543     596.2885
   1425.50842     745.0522     596.5712   1425.50842     745.0522     596.5712
   1425.49316     747.4073     596.9496   1425.49316     747.4073     596.9496
   1425.47791     748.9367     597.6673   1425.47791     748.9367     597.6673
   1425.46265     749.4608     598.7311   1425.46265     749.4608     598.7311
   1425.44739     752.4568     598.6568   1425.44739     752.4568     598.6568
   1425.43213     753.2831     599.5061   1425.43213     753.2831     599.5061
   1425.41687     752.7292     600.1386   1425.41687     752.7292     600.1386
   1425.40161     755.9437     600.7516   1425.40161     755.9437     600.7516
   1425.38635     756.8507     601.4080   1425.38635     756.8507     601.4080
   1425.37109     758.2124     602.2847   1425.37109     758.2124     602.2847
   1425.35583     759.1990     603.2854   1425.35583     759.1990     603.2854
   1425.34058     760.4283     603.7182   1425.34058     760.4283     603.7182
   1425.32532     761.1435     603.6293   1425.32532     761.1435     603.6293
   1425.31006     763.0814     604.2539   1425.31006     763.0814     604.2539
   1425.29480     763.9227     604.1649   1425.29480     763.9227     604.1649
   1425.27954     763.5950     605.1155   1425.27954     763.5950     605.1155
   1425.26428     766.6288     605.5476   1425.26428     766.6288     605.5476
   1425.24902     766.4294     606.1057   1425.24902     766.4294     606.1057
   1425.23376     768.3826     607.0435   1425.23376     768.3826     607.0435
   1425.21851     769.1196     607.1129   1425.21851     769.1196     607.1129
   1425.20325     769.5933     607.8572   1425.20325     769.5933     607.8572
   1425.18799     769.9514     608.1608   1425.18799     769.9514     608.1608
   1425.17273     772.8997     609.8666   1425.17273     772.8997     609.8666
   1425.15747     771.6345     607.4365   1425.15747     771.6345     607.4365
   1425.14221     773.6155     609.2263   1425.14221     773.6155     609.2263
   1425.12695     774.1763     610.0989   1425.12695     774.1763     610.0989
   1425.11169     773.2618     610.3560   1425.11169     773.2618     610.3560
   1425.09644     773.7634     611.3323   1425.09644     773.7634     611.3323
   1425.08118     774.0938     610.2778   1425.08118     774.0938     610.2778
   1425.06592     774.8951     611.2139   1425.06592     774.8951     611.2139
   1425.05066     777.3110     611.5571   1425.05066     777.3110     611.5571
   1425.03540     776.3508     611.4134   1425.03540     776.3508     611.4134
   1425.02014     777.0671     611.5106   1425.02014     777.0671     611.5106
   1425.00488     778.0767     612.1068   1425.00488     778.0767     612.1068
   1424.98962     780.4394     612.5087   1424.98962     780.4394     612.5087
   1424.97437     778.3746     612.7275   1424.97437     778.3746     612.7275
   1424.95911     779.0677     612.9632   1424.95911     779.0677     612.9632
   1424.94385     778.7321     613.4816   1424.94385     778.7321     613.4816
   1424.92859     780.4883     613.2686   1424.92859     780.4883     613.2686
   1424.91333     780.5937     614.0548   1424.91333     780.5937     614.0548
   1424.89807     782.0073     613.6738   1424.89807     782.0073     613.6738
   1424.88281     781.2162     614.0557   1424.88281     781.2162     614.0557
   1424.86755     780.3945     614.4761   1424.86755     780.3945     614.4761
   1424.85229     781.8994     614.6735   1424.85229     781.8994     614.6735
   1424.83704     782.3558     614.4425   1424.83704     782.3558     614.4425
   1424.82178     782.4384     614.8925   1424.82178     782.4384     614.8925
   1424.80652     782.5979     614.1040   1424.80652     782.5979     614.1040
   1424.79126     781.4971     615.6677   1424.79126     781.4971     615.6677
   1424.77600     782.7003     614.8934   1424.77600     782.7003     614.8934
   1424.76074     782.6454     615.4016   1424.76074     782.6454     615.4016
   1424.74548     783.0485     615.3626   1424.74548     783.0485     615.3626
   1424.73022     781.9173     615.4232   1424.73022     781.9173     615.4232
   1424.71497     784.1071     615.7800   1424.71497     784.1071     615.7800
   1424.69971     783.6506     615.5631   1424.69971     783.6506     615.5631
   1424.68445     783.5196     615.6033   1424.68445     783.5196     615.6033
   1424.66919     783.0803     614.8848   1424.66919     783.0803     614.8848
   1424.65393     782.8255     615.3653   1424.65393     782.8255     615.3653
   1424.63867     782.7734     616.4960   1424.63867     782.7734     616.4960
   1424.62341     784.1516     616.4539   1424.62341     784.1516     616.4539
   1424.60815     782.7142     616.3240   1424.60815     782.7142     616.3240
   1424.59290     782.1324     615.0649   1424.59290     782.1324     615.0649
   1424.57764     781.6337     615.1401   1424.57764     781.6337     615.1401
   1424.56238     782.3015     614.7162   1424.56238     782.3015     614.7162
   1424.54712     782.6740     614.6127   1424.54712     782.6740     614.6127
   1424.53186     781.1986     614.7789   1424.53186     781.1986     614.7789
   1424.51660     782.0485     614.4750   1424.51660     782.0485     614.4750
   1424.50134     781.2086     614.6564   1424.50134     781.2086     614.6564
   1424.48608     780.9587     615.5384   1424.48608     780.9587     615.5384
   1424.47083     781.2875     615.5429   1424.47083     781.2875     615.5429
   1424.45557     782.2947     615.3293   1424.45557     782.2947     615.3293
   1424.44031     781.8577     614.7438   1424.44031     781.8577     614.7438
   1424.42505     780.9840     614.3569   1424.42505     780.9840     614.3569
   1424.40979     780.4087     614.7274   1424.40979     780.4087     614.7274
   1424.39453     779.4365     613.8069   1424.39453     779.4365     613.8069
   1424.37927     778.7968     613.9548   1424.37927     778.7968     613.9548
   1424.36401     778.5915     614.7299   1424.36401     778.5915     614.7299
   1424.34875     779.8816     614.3483   1424.34875     779.8816     614.3483
   1424.33350     777.9885     613.9119   1424.33350     777.9885     613.9119
   1424.31824     778.1241     614.6419   1424.31824     778.1241     614.6419
   1424.30298     777.4147     613.2266   1424.30298     777.4147     613.2266
   1424.28772     777.5574     612.5865   1424.28772     777.5574     612.5865
   1424.27246     777.2679     612.8028   1424.27246     777.2679     612.8028
   1424.25720     776.3779     614.0381   1424.25720     776.3779     614.0381
   1424.24194     776.0797     612.3077   1424.24194     776.0797     612.3077
   1424.22668     775.8723     612.1700   1424.22668     775.8723     612.1700
   1424.21143     775.7796     612.7850   1424.21143     775.7796     612.7850
   1424.19617     774.2136     612.7432   1424.19617     774.2136     612.7432
   1424.18091     774.4114     611.0650   1424.18091     774.4114     611.0650
   1424.16565     775.1556     612.6917   1424.16565     775.1556     612.6917
