#     FILENAME=!Skynet_57528_lach-hhg-165_20540_20989.cyb.fits
#     BASENAME=Skynet_57528_lach-hhg-165_20540_20989
#     SRC_NAME=lach-hhg-165
#     OBSERVER=hhgmadison16_9500
#     DATE_OBS=2016-05-20T18:08:26.750
#        OBSID=20540
#      SCANNUM=20989
#          MJD=57528.7569
#          UTC=65396
#     SCANTYPE=track
#     DATAMODE=HIRES
#     TUNEFREQ=1420.0000
# Actual_FREQ1=1420.0000
# Actual_FREQ2=1420.0000
#    LO1Tuning=6870.000
#     RFFILTER=1355_1435
#        OBSBW=-15.6250
#        NCHAN=1024 
#        FOCUS=37.0709
#           RA=05:04:11.19
#          DEC=41:21:07.65
#      RA(hrs)=5.069800
#     DEC(deg)=41.352100
#    AZIM(deg)=51.991
#    ELEV(deg)=84.971
#     IFattens=10.00, 9.00
#      WARNING=None
#    TCAL_XL1=7.9635
#    TCAL_YR1=9.1340
#    TCAL_XL2=7.9635
#    TCAL_YR2=9.1340
#     TRX_XL1=11.7060
#     TRX_YR1=11.7060
#     TRX_XL2=11.7060
#     TRX_YR2=11.7060
#        TAVE=1.0000
#Freq1(MHz)          XL1          YR1  Freq2(MHz)          XL2          YR2 

   1427.81250     373.8298     333.0947   1427.81250     373.8298     333.0947
   1427.79724     373.7658     334.1352   1427.79724     373.7658     334.1352
   1427.78198     374.1903     336.5895   1427.78198     374.1903     336.5895
   1427.76672     375.2803     337.2904   1427.76672     375.2803     337.2904
   1427.75146     375.7267     339.4024   1427.75146     375.7267     339.4024
   1427.73621     376.4959     341.2994   1427.73621     376.4959     341.2994
   1427.72095     377.0559     342.8262   1427.72095     377.0559     342.8262
   1427.70569     379.1820     344.4143   1427.70569     379.1820     344.4143
   1427.69043     380.4920     346.2544   1427.69043     380.4920     346.2544
   1427.67517     380.9321     348.3361   1427.67517     380.9321     348.3361
   1427.65991     381.6666     350.0227   1427.65991     381.6666     350.0227
   1427.64465     382.5182     352.0705   1427.64465     382.5182     352.0705
   1427.62939     383.9270     354.3553   1427.62939     383.9270     354.3553
   1427.61414     385.7530     356.5028   1427.61414     385.7530     356.5028
   1427.59888     386.7443     358.5849   1427.59888     386.7443     358.5849
   1427.58362     388.2213     360.9260   1427.58362     388.2213     360.9260
   1427.56836     389.5186     363.2672   1427.56836     389.5186     363.2672
   1427.55310     390.8903     365.4770   1427.55310     390.8903     365.4770
   1427.53784     392.5959     367.3752   1427.53784     392.5959     367.3752
   1427.52258     393.2767     370.2359   1427.52258     393.2767     370.2359
   1427.50732     395.0184     372.5878   1427.50732     395.0184     372.5878
   1427.49207     397.4314     375.0580   1427.49207     397.4314     375.0580
   1427.47681     398.4500     376.7671   1427.47681     398.4500     376.7671
   1427.46155     400.8667     379.4532   1427.46155     400.8667     379.4532
   1427.44629     402.0734     381.9302   1427.44629     402.0734     381.9302
   1427.43103     404.0146     384.4241   1427.43103     404.0146     384.4241
   1427.41577     405.8721     387.4050   1427.41577     405.8721     387.4050
   1427.40051     407.4916     390.6891   1427.40051     407.4916     390.6891
   1427.38525     409.0434     393.3309   1427.38525     409.0434     393.3309
   1427.37000     412.2379     395.7584   1427.37000     412.2379     395.7584
   1427.35474     413.8484     398.3665   1427.35474     413.8484     398.3665
   1427.33948     416.3442     400.5585   1427.33948     416.3442     400.5585
   1427.32422     417.9179     402.8257   1427.32422     417.9179     402.8257
   1427.30896     420.7256     406.3984   1427.30896     420.7256     406.3984
   1427.29370     421.9050     408.3173   1427.29370     421.9050     408.3173
   1427.27844     424.2259     411.7988   1427.27844     424.2259     411.7988
   1427.26318     426.8884     414.8086   1427.26318     426.8884     414.8086
   1427.24792     428.7334     418.0215   1427.24792     428.7334     418.0215
   1427.23267     431.9333     421.0266   1427.23267     431.9333     421.0266
   1427.21741     434.3460     423.8647   1427.21741     434.3460     423.8647
   1427.20215     436.2962     426.4624   1427.20215     436.2962     426.4624
   1427.18689     438.3925     429.9891   1427.18689     438.3925     429.9891
   1427.17163     442.1006     432.4703   1427.17163     442.1006     432.4703
   1427.15637     443.6047     436.1828   1427.15637     443.6047     436.1828
   1427.14111     446.8275     437.9300   1427.14111     446.8275     437.9300
   1427.12585     449.7007     441.1637   1427.12585     449.7007     441.1637
   1427.11060     452.0946     444.7424   1427.11060     452.0946     444.7424
   1427.09534     454.2867     447.2228   1427.09534     454.2867     447.2228
   1427.08008     457.5123     450.7314   1427.08008     457.5123     450.7314
   1427.06482     460.5053     453.6038   1427.06482     460.5053     453.6038
   1427.04956     462.3017     456.2638   1427.04956     462.3017     456.2638
   1427.03430     465.9386     458.8707   1427.03430     465.9386     458.8707
   1427.01904     468.6104     462.1878   1427.01904     468.6104     462.1878
   1427.00378     471.1974     465.2351   1427.00378     471.1974     465.2351
   1426.98853     474.3777     468.0060   1426.98853     474.3777     468.0060
   1426.97327     476.6194     471.0328   1426.97327     476.6194     471.0328
   1426.95801     479.9638     474.6980   1426.95801     479.9638     474.6980
   1426.94275     482.7489     477.0057   1426.94275     482.7489     477.0057
   1426.92749     485.4248     480.2483   1426.92749     485.4248     480.2483
   1426.91223     488.0736     483.6434   1426.91223     488.0736     483.6434
   1426.89697     490.8592     486.0683   1426.89697     490.8592     486.0683
   1426.88171     494.2133     489.9496   1426.88171     494.2133     489.9496
   1426.86646     497.9087     492.6880   1426.86646     497.9087     492.6880
   1426.85120     500.2178     495.3166   1426.85120     500.2178     495.3166
   1426.83594     503.7671     498.4258   1426.83594     503.7671     498.4258
   1426.82068     506.9171     501.4089   1426.82068     506.9171     501.4089
   1426.80542     509.5315     504.0695   1426.80542     509.5315     504.0695
   1426.79016     512.0210     507.0096   1426.79016     512.0210     507.0096
   1426.77490     516.0751     509.8929   1426.77490     516.0751     509.8929
   1426.75964     518.9166     512.4910   1426.75964     518.9166     512.4910
   1426.74438     521.6030     515.1547   1426.74438     521.6030     515.1547
   1426.72913     524.6115     518.2687   1426.72913     524.6115     518.2687
   1426.71387     528.0529     521.4898   1426.71387     528.0529     521.4898
   1426.69861     530.7488     524.7017   1426.69861     530.7488     524.7017
   1426.68335     535.1546     527.2028   1426.68335     535.1546     527.2028
   1426.66809     537.2327     530.2468   1426.66809     537.2327     530.2468
   1426.65283     541.0219     532.4534   1426.65283     541.0219     532.4534
   1426.63757     543.2629     534.1951   1426.63757     543.2629     534.1951
   1426.62231     552.3813     539.5315   1426.62231     552.3813     539.5315
   1426.60706     550.3321     540.3314   1426.60706     550.3321     540.3314
   1426.59180     552.8800     542.5543   1426.59180     552.8800     542.5543
   1426.57654     555.6249     545.5372   1426.57654     555.6249     545.5372
   1426.56128     558.6971     548.5960   1426.56128     558.6971     548.5960
   1426.54602     562.6290     550.2019   1426.54602     562.6290     550.2019
   1426.53076     564.6268     552.5797   1426.53076     564.6268     552.5797
   1426.51550     568.4434     556.2372   1426.51550     568.4434     556.2372
   1426.50024     572.3991     558.7606   1426.50024     572.3991     558.7606
   1426.48499     575.2513     561.0234   1426.48499     575.2513     561.0234
   1426.46973     577.2999     562.9966   1426.46973     577.2999     562.9966
   1426.45447     581.1415     565.4167   1426.45447     581.1415     565.4167
   1426.43921     583.8433     567.9250   1426.43921     583.8433     567.9250
   1426.42395     587.0575     571.1333   1426.42395     587.0575     571.1333
   1426.40869     589.6571     572.9041   1426.40869     589.6571     572.9041
   1426.39343     593.3096     574.9410   1426.39343     593.3096     574.9410
   1426.37817     596.3192     576.4924   1426.37817     596.3192     576.4924
   1426.36292     598.4582     578.5698   1426.36292     598.4582     578.5698
   1426.34766     602.3223     581.3909   1426.34766     602.3223     581.3909
   1426.33240     604.9483     582.2542   1426.33240     604.9483     582.2542
   1426.31714     607.7325     584.8851   1426.31714     607.7325     584.8851
   1426.30188     611.3039     586.4619   1426.30188     611.3039     586.4619
   1426.28662     613.7520     589.5614   1426.28662     613.7520     589.5614
   1426.27136     616.2391     592.0885   1426.27136     616.2391     592.0885
   1426.25610     619.5729     592.6932   1426.25610     619.5729     592.6932
   1426.24084     622.5632     594.7786   1426.24084     622.5632     594.7786
   1426.22559     624.7214     596.5109   1426.22559     624.7214     596.5109
   1426.21033     628.1848     598.5516   1426.21033     628.1848     598.5516
   1426.19507     630.7260     600.1473   1426.19507     630.7260     600.1473
   1426.17981     633.4299     602.5870   1426.17981     633.4299     602.5870
   1426.16455     635.5934     604.5643   1426.16455     635.5934     604.5643
   1426.14929     638.5770     606.7394   1426.14929     638.5770     606.7394
   1426.13403     641.5964     607.4072   1426.13403     641.5964     607.4072
   1426.11877     643.6948     609.8043   1426.11877     643.6948     609.8043
   1426.10352     646.7299     610.9336   1426.10352     646.7299     610.9336
   1426.08826     650.0038     612.6356   1426.08826     650.0038     612.6356
   1426.07300     653.0139     614.2587   1426.07300     653.0139     614.2587
   1426.05774     654.6761     615.6966   1426.05774     654.6761     615.6966
   1426.04248     656.6702     616.2938   1426.04248     656.6702     616.2938
   1426.02722     660.8101     618.0430   1426.02722     660.8101     618.0430
   1426.01196     663.1223     619.6142   1426.01196     663.1223     619.6142
   1425.99670     665.0711     621.0370   1425.99670     665.0711     621.0370
   1425.98145     667.0584     623.3046   1425.98145     667.0584     623.3046
   1425.96619     670.4166     623.5455   1425.96619     670.4166     623.5455
   1425.95093     672.6248     626.0306   1425.95093     672.6248     626.0306
   1425.93567     675.1115     626.7067   1425.93567     675.1115     626.7067
   1425.92041     677.1790     627.4564   1425.92041     677.1790     627.4564
   1425.90515     680.3593     629.5493   1425.90515     680.3593     629.5493
   1425.88989     681.2777     629.7437   1425.88989     681.2777     629.7437
   1425.87463     684.3081     630.1266   1425.87463     684.3081     630.1266
   1425.85938     684.8993     632.4862   1425.85938     684.8993     632.4862
   1425.84412     688.0859     633.5458   1425.84412     688.0859     633.5458
   1425.82886     690.0710     634.8121   1425.82886     690.0710     634.8121
   1425.81360     692.8029     634.4606   1425.81360     692.8029     634.4606
   1425.79834     695.0453     635.7915   1425.79834     695.0453     635.7915
   1425.78308     696.2125     638.0269   1425.78308     696.2125     638.0269
   1425.76782     698.6248     638.9250   1425.76782     698.6248     638.9250
   1425.75256     700.4058     638.4543   1425.75256     700.4058     638.4543
   1425.73730     702.9988     639.2919   1425.73730     702.9988     639.2919
   1425.72205     705.4017     640.6436   1425.72205     705.4017     640.6436
   1425.70679     705.5657     641.8577   1425.70679     705.5657     641.8577
   1425.69153     708.2588     642.7799   1425.69153     708.2588     642.7799
   1425.67627     711.4034     643.2960   1425.67627     711.4034     643.2960
   1425.66101     712.2764     641.8163   1425.66101     712.2764     641.8163
   1425.64575     713.7985     644.4889   1425.64575     713.7985     644.4889
   1425.63049     715.8020     644.7479   1425.63049     715.8020     644.7479
   1425.61523     717.4468     645.2410   1425.61523     717.4468     645.2410
   1425.59998     719.6158     645.6794   1425.59998     719.6158     645.6794
   1425.58472     721.4775     645.8298   1425.58472     721.4775     645.8298
   1425.56946     722.0795     647.3307   1425.56946     722.0795     647.3307
   1425.55420     723.7692     646.3468   1425.55420     723.7692     646.3468
   1425.53894     725.1987     648.0571   1425.53894     725.1987     648.0571
   1425.52368     726.5629     647.4112   1425.52368     726.5629     647.4112
   1425.50842     729.7272     648.8019   1425.50842     729.7272     648.8019
   1425.49316     729.3842     649.8625   1425.49316     729.3842     649.8625
   1425.47791     731.3362     648.9921   1425.47791     731.3362     648.9921
   1425.46265     732.0179     649.6949   1425.46265     732.0179     649.6949
   1425.44739     734.6852     650.0377   1425.44739     734.6852     650.0377
   1425.43213     734.3221     649.3609   1425.43213     734.3221     649.3609
   1425.41687     737.5892     651.6431   1425.41687     737.5892     651.6431
   1425.40161     738.0695     650.6659   1425.40161     738.0695     650.6659
   1425.38635     738.5844     651.3707   1425.38635     738.5844     651.3707
   1425.37109     740.3975     652.6295   1425.37109     740.3975     652.6295
   1425.35583     742.4969     650.7609   1425.35583     742.4969     650.7609
   1425.34058     742.4631     652.3168   1425.34058     742.4631     652.3168
   1425.32532     742.0042     651.4385   1425.32532     742.0042     651.4385
   1425.31006     744.7750     651.4020   1425.31006     744.7750     651.4020
   1425.29480     745.7226     652.4136   1425.29480     745.7226     652.4136
   1425.27954     746.0237     652.4890   1425.27954     746.0237     652.4890
   1425.26428     748.1500     652.8010   1425.26428     748.1500     652.8010
   1425.24902     748.7696     653.0447   1425.24902     748.7696     653.0447
   1425.23376     750.9141     653.2624   1425.23376     750.9141     653.2624
   1425.21851     750.8139     652.5870   1425.21851     750.8139     652.5870
   1425.20325     751.8323     652.9330   1425.20325     751.8323     652.9330
   1425.18799     751.1675     652.9895   1425.18799     751.1675     652.9895
   1425.17273     754.3328     652.3422   1425.17273     754.3328     652.3422
   1425.15747     753.2017     652.6407   1425.15747     753.2017     652.6407
   1425.14221     753.7283     651.3043   1425.14221     753.7283     651.3043
   1425.12695     755.3328     653.0292   1425.12695     755.3328     653.0292
   1425.11169     755.4805     651.9520   1425.11169     755.4805     651.9520
   1425.09644     758.3680     651.5261   1425.09644     758.3680     651.5261
   1425.08118     757.3699     651.6368   1425.08118     757.3699     651.6368
   1425.06592     756.3104     652.3730   1425.06592     756.3104     652.3730
   1425.05066     758.4928     652.1360   1425.05066     758.4928     652.1360
   1425.03540     759.2291     651.2127   1425.03540     759.2291     651.2127
   1425.02014     758.0399     652.1843   1425.02014     758.0399     652.1843
   1425.00488     759.6475     650.6077   1425.00488     759.6475     650.6077
   1424.98962     759.8022     651.0084   1424.98962     759.8022     651.0084
   1424.97437     762.4279     651.2250   1424.97437     762.4279     651.2250
   1424.95911     760.1939     650.4098   1424.95911     760.1939     650.4098
   1424.94385     761.8608     649.9813   1424.94385     761.8608     649.9813
   1424.92859     761.3121     649.4416   1424.92859     761.3121     649.4416
   1424.91333     762.1077     649.4058   1424.91333     762.1077     649.4058
   1424.89807     761.8636     647.9894   1424.89807     761.8636     647.9894
   1424.88281     763.0013     648.8849   1424.88281     763.0013     648.8849
   1424.86755     763.9669     649.0740   1424.86755     763.9669     649.0740
   1424.85229     763.7469     649.5567   1424.85229     763.7469     649.5567
   1424.83704     763.9700     647.8374   1424.83704     763.9700     647.8374
   1424.82178     764.1273     646.8059   1424.82178     764.1273     646.8059
   1424.80652     763.3456     647.8070   1424.80652     763.3456     647.8070
   1424.79126     763.9001     646.7040   1424.79126     763.9001     646.7040
   1424.77600     764.2205     647.0632   1424.77600     764.2205     647.0632
   1424.76074     764.0899     646.6672   1424.76074     764.0899     646.6672
   1424.74548     763.6198     645.5739   1424.74548     763.6198     645.5739
   1424.73022     764.9417     644.2977   1424.73022     764.9417     644.2977
   1424.71497     764.5933     644.2141   1424.71497     764.5933     644.2141
   1424.69971     763.7012     643.4003   1424.69971     763.7012     643.4003
   1424.68445     765.1434     645.1680   1424.68445     765.1434     645.1680
   1424.66919     764.3188     643.8379   1424.66919     764.3188     643.8379
   1424.65393     764.8271     643.3589   1424.65393     764.8271     643.3589
   1424.63867     764.3782     641.5669   1424.63867     764.3782     641.5669
   1424.62341     765.5068     641.4556   1424.62341     765.5068     641.4556
   1424.60815     763.1847     640.1689   1424.60815     763.1847     640.1689
   1424.59290     764.1744     640.4340   1424.59290     764.1744     640.4340
   1424.57764     765.1974     639.6813   1424.57764     765.1974     639.6813
   1424.56238     763.9894     640.0390   1424.56238     763.9894     640.0390
   1424.54712     763.5596     638.9522   1424.54712     763.5596     638.9522
   1424.53186     764.1862     637.8986   1424.53186     764.1862     637.8986
   1424.51660     764.7980     639.1179   1424.51660     764.7980     639.1179
   1424.50134     764.5714     637.1796   1424.50134     764.5714     637.1796
   1424.48608     763.3562     636.7262   1424.48608     763.3562     636.7262
   1424.47083     763.4877     636.2833   1424.47083     763.4877     636.2833
   1424.45557     764.0549     635.9804   1424.45557     764.0549     635.9804
   1424.44031     763.3632     634.6523   1424.44031     763.3632     634.6523
   1424.42505     763.1110     635.0319   1424.42505     763.1110     635.0319
   1424.40979     763.2250     634.4748   1424.40979     763.2250     634.4748
   1424.39453     763.4926     633.3297   1424.39453     763.4926     633.3297
   1424.37927     761.7960     632.7280   1424.37927     761.7960     632.7280
   1424.36401     761.3811     631.4919   1424.36401     761.3811     631.4919
   1424.34875     762.2537     631.6087   1424.34875     762.2537     631.6087
   1424.33350     762.0361     630.7298   1424.33350     762.0361     630.7298
   1424.31824     760.8694     630.9402   1424.31824     760.8694     630.9402
   1424.30298     760.9145     629.7195   1424.30298     760.9145     629.7195
   1424.28772     761.7698     628.9799   1424.28772     761.7698     628.9799
   1424.27246     760.0681     627.6277   1424.27246     760.0681     627.6277
   1424.25720     759.1707     627.7921   1424.25720     759.1707     627.7921
   1424.24194     759.8497     627.5396   1424.24194     759.8497     627.5396
   1424.22668     760.0565     625.9095   1424.22668     760.0565     625.9095
   1424.21143     759.5823     625.2334   1424.21143     759.5823     625.2334
   1424.19617     758.4706     624.4792   1424.19617     758.4706     624.4792
   1424.18091     758.3412     624.8391   1424.18091     758.3412     624.8391
   1424.16565     758.4947     622.0874   1424.16565     758.4947     622.0874
