#     FILENAME=!Skynet_57528_lach-cc-218_20629_21041.cyb.fits
#     BASENAME=Skynet_57528_lach-cc-218_20629_21041
#     SRC_NAME=lach-cc-218
#     OBSERVER=ccmadison16_9505
#     DATE_OBS=2016-05-20T19:58:48.750
#        OBSID=20629
#      SCANNUM=21041
#          MJD=57528.8336
#          UTC=72018
#     SCANTYPE=track
#     DATAMODE=HIRES
#     TUNEFREQ=1420.0000
# Actual_FREQ1=1420.0000
# Actual_FREQ2=1420.0000
#    LO1Tuning=6870.000
#     RFFILTER=1355_1435
#        OBSBW=-15.6250
#        NCHAN=1024 
#        FOCUS=37.0709
#           RA=07:00:42.73
#          DEC=-04:30:31.56
#      RA(hrs)=7.011900
#     DEC(deg)=-4.508800
#    AZIM(deg)=169.863
#    ELEV(deg)=46.446
#     IFattens=10.00, 9.00
#      WARNING=None
#    TCAL_XL1=7.9635
#    TCAL_YR1=9.1340
#    TCAL_XL2=7.9635
#    TCAL_YR2=9.1340
#     TRX_XL1=11.7060
#     TRX_YR1=11.7060
#     TRX_XL2=11.7060
#     TRX_YR2=11.7060
#        TAVE=1.0000
#Freq1(MHz)          XL1          YR1  Freq2(MHz)          XL2          YR2 

   1427.81250     352.9667     261.9213   1427.81250     352.9667     261.9213
   1427.79724     354.2989     262.6361   1427.79724     354.2989     262.6361
   1427.78198     355.0881     263.0788   1427.78198     355.0881     263.0788
   1427.76672     355.6879     263.3272   1427.76672     355.6879     263.3272
   1427.75146     356.1836     264.1170   1427.75146     356.1836     264.1170
   1427.73621     357.9177     265.0898   1427.73621     357.9177     265.0898
   1427.72095     357.8931     265.0647   1427.72095     357.8931     265.0647
   1427.70569     359.2131     265.7805   1427.70569     359.2131     265.7805
   1427.69043     360.3344     266.5485   1427.69043     360.3344     266.5485
   1427.67517     360.9388     267.5835   1427.67517     360.9388     267.5835
   1427.65991     361.9435     268.1769   1427.65991     361.9435     268.1769
   1427.64465     363.3809     269.2195   1427.64465     363.3809     269.2195
   1427.62939     364.3498     269.8501   1427.62939     364.3498     269.8501
   1427.61414     365.7295     270.4820   1427.61414     365.7295     270.4820
   1427.59888     367.6263     271.8597   1427.59888     367.6263     271.8597
   1427.58362     367.8704     272.5188   1427.58362     367.8704     272.5188
   1427.56836     369.7930     273.4836   1427.56836     369.7930     273.4836
   1427.55310     371.4881     274.7718   1427.55310     371.4881     274.7718
   1427.53784     372.5770     275.7785   1427.53784     372.5770     275.7785
   1427.52258     374.2399     277.2675   1427.52258     374.2399     277.2675
   1427.50732     376.1165     278.2118   1427.50732     376.1165     278.2118
   1427.49207     377.2119     279.3451   1427.49207     377.2119     279.3451
   1427.47681     379.1816     280.8165   1427.47681     379.1816     280.8165
   1427.46155     380.6968     281.9148   1427.46155     380.6968     281.9148
   1427.44629     382.7430     283.0983   1427.44629     382.7430     283.0983
   1427.43103     384.7845     284.8520   1427.43103     384.7845     284.8520
   1427.41577     386.0027     286.0847   1427.41577     386.0027     286.0847
   1427.40051     387.5716     287.3918   1427.40051     387.5716     287.3918
   1427.38525     389.9899     289.3202   1427.38525     389.9899     289.3202
   1427.37000     391.7378     290.6731   1427.37000     391.7378     290.6731
   1427.35474     393.2979     291.8383   1427.35474     393.2979     291.8383
   1427.33948     395.7212     293.9118   1427.33948     395.7212     293.9118
   1427.32422     397.6442     294.7381   1427.32422     397.6442     294.7381
   1427.30896     399.5406     296.4734   1427.30896     399.5406     296.4734
   1427.29370     401.6564     298.5812   1427.29370     401.6564     298.5812
   1427.27844     402.8696     300.1630   1427.27844     402.8696     300.1630
   1427.26318     405.9777     301.9305   1427.26318     405.9777     301.9305
   1427.24792     407.8348     303.8066   1427.24792     407.8348     303.8066
   1427.23267     410.3652     305.4505   1427.23267     410.3652     305.4505
   1427.21741     412.1432     307.1109   1427.21741     412.1432     307.1109
   1427.20215     414.4214     308.5226   1427.20215     414.4214     308.5226
   1427.18689     416.6798     311.3767   1427.18689     416.6798     311.3767
   1427.17163     418.7690     313.2690   1427.17163     418.7690     313.2690
   1427.15637     421.1826     314.6680   1427.15637     421.1826     314.6680
   1427.14111     424.6261     316.6475   1427.14111     424.6261     316.6475
   1427.12585     426.5522     318.9186   1427.12585     426.5522     318.9186
   1427.11060     428.7408     320.8500   1427.11060     428.7408     320.8500
   1427.09534     430.7908     322.6198   1427.09534     430.7908     322.6198
   1427.08008     433.7160     325.2144   1427.08008     433.7160     325.2144
   1427.06482     435.1786     326.9027   1427.06482     435.1786     326.9027
   1427.04956     438.4076     329.9304   1427.04956     438.4076     329.9304
   1427.03430     441.2029     331.5668   1427.03430     441.2029     331.5668
   1427.01904     443.8032     333.4570   1427.01904     443.8032     333.4570
   1427.00378     446.4554     336.2959   1427.00378     446.4554     336.2959
   1426.98853     448.9623     338.3895   1426.98853     448.9623     338.3895
   1426.97327     451.1474     340.1721   1426.97327     451.1474     340.1721
   1426.95801     453.4701     342.5058   1426.95801     453.4701     342.5058
   1426.94275     456.1681     344.9346   1426.94275     456.1681     344.9346
   1426.92749     459.0937     347.1064   1426.92749     459.0937     347.1064
   1426.91223     462.2652     349.6134   1426.91223     462.2652     349.6134
   1426.89697     464.9030     351.8520   1426.89697     464.9030     351.8520
   1426.88171     467.4330     353.5504   1426.88171     467.4330     353.5504
   1426.86646     469.9005     356.4629   1426.86646     469.9005     356.4629
   1426.85120     472.4412     358.7963   1426.85120     472.4412     358.7963
   1426.83594     475.3591     360.8424   1426.83594     475.3591     360.8424
   1426.82068     477.4781     363.2241   1426.82068     477.4781     363.2241
   1426.80542     480.6853     366.3354   1426.80542     480.6853     366.3354
   1426.79016     483.2286     367.9629   1426.79016     483.2286     367.9629
   1426.77490     485.1887     370.8235   1426.77490     485.1887     370.8235
   1426.75964     488.7503     373.5605   1426.75964     488.7503     373.5605
   1426.74438     491.5844     376.0332   1426.74438     491.5844     376.0332
   1426.72913     493.5607     377.9200   1426.72913     493.5607     377.9200
   1426.71387     497.0722     380.8741   1426.71387     497.0722     380.8741
   1426.69861     499.7650     382.9200   1426.69861     499.7650     382.9200
   1426.68335     502.2704     386.0628   1426.68335     502.2704     386.0628
   1426.66809     505.5786     387.9333   1426.66809     505.5786     387.9333
   1426.65283     508.2547     390.6370   1426.65283     508.2547     390.6370
   1426.63757     510.2652     393.4118   1426.63757     510.2652     393.4118
   1426.62231     513.5476     400.0880   1426.62231     513.5476     400.0880
   1426.60706     515.9406     398.4066   1426.60706     515.9406     398.4066
   1426.59180     518.6045     400.8622   1426.59180     518.6045     400.8622
   1426.57654     521.8364     403.6041   1426.57654     521.8364     403.6041
   1426.56128     524.1898     406.6580   1426.56128     524.1898     406.6580
   1426.54602     526.6850     408.6459   1426.54602     526.6850     408.6459
   1426.53076     529.0726     411.7869   1426.53076     529.0726     411.7869
   1426.51550     531.6705     413.8447   1426.51550     531.6705     413.8447
   1426.50024     534.6418     417.0957   1426.50024     534.6418     417.0957
   1426.48499     537.1430     418.8908   1426.48499     537.1430     418.8908
   1426.46973     539.7548     421.8872   1426.46973     539.7548     421.8872
   1426.45447     542.7778     424.5244   1426.45447     542.7778     424.5244
   1426.43921     546.3737     426.5408   1426.43921     546.3737     426.5408
   1426.42395     547.4441     430.3255   1426.42395     547.4441     430.3255
   1426.40869     551.6014     432.7458   1426.40869     551.6014     432.7458
   1426.39343     553.7549     435.8451   1426.39343     553.7549     435.8451
   1426.37817     555.9128     437.3857   1426.37817     555.9128     437.3857
   1426.36292     558.8594     440.1995   1426.36292     558.8594     440.1995
   1426.34766     560.8530     442.7275   1426.34766     560.8530     442.7275
   1426.33240     563.2203     445.3453   1426.33240     563.2203     445.3453
   1426.31714     565.8775     448.3221   1426.31714     565.8775     448.3221
   1426.30188     568.2743     450.3493   1426.30188     568.2743     450.3493
   1426.28662     570.5652     452.2030   1426.28662     570.5652     452.2030
   1426.27136     573.6971     455.9460   1426.27136     573.6971     455.9460
   1426.25610     576.1342     458.0503   1426.25610     576.1342     458.0503
   1426.24084     578.1393     460.0379   1426.24084     578.1393     460.0379
   1426.22559     580.4625     463.8433   1426.22559     580.4625     463.8433
   1426.21033     583.7670     465.4199   1426.21033     583.7670     465.4199
   1426.19507     584.8427     468.2463   1426.19507     584.8427     468.2463
   1426.17981     588.0178     470.7892   1426.17981     588.0178     470.7892
   1426.16455     590.1710     473.8119   1426.16455     590.1710     473.8119
   1426.14929     592.9836     476.4869   1426.14929     592.9836     476.4869
   1426.13403     594.5449     478.2222   1426.13403     594.5449     478.2222
   1426.11877     597.4238     481.1883   1426.11877     597.4238     481.1883
   1426.10352     600.0120     483.4215   1426.10352     600.0120     483.4215
   1426.08826     602.0115     486.0716   1426.08826     602.0115     486.0716
   1426.07300     604.1563     489.2165   1426.07300     604.1563     489.2165
   1426.05774     606.3826     491.4289   1426.05774     606.3826     491.4289
   1426.04248     607.5004     493.8867   1426.04248     607.5004     493.8867
   1426.02722     609.6158     496.1466   1426.02722     609.6158     496.1466
   1426.01196     611.8816     498.4309   1426.01196     611.8816     498.4309
   1425.99670     613.5793     501.7562   1425.99670     613.5793     501.7562
   1425.98145     615.9755     503.0501   1425.98145     615.9755     503.0501
   1425.96619     618.1700     506.2694   1425.96619     618.1700     506.2694
   1425.95093     620.2849     508.3413   1425.95093     620.2849     508.3413
   1425.93567     622.6751     511.4211   1425.93567     622.6751     511.4211
   1425.92041     624.2633     512.6011   1425.92041     624.2633     512.6011
   1425.90515     626.4079     516.1302   1425.90515     626.4079     516.1302
   1425.88989     627.2295     517.8586   1425.88989     627.2295     517.8586
   1425.87463     631.4741     519.7296   1425.87463     631.4741     519.7296
   1425.85938     632.0426     522.9824   1425.85938     632.0426     522.9824
   1425.84412     632.9315     524.8334   1425.84412     632.9315     524.8334
   1425.82886     635.4240     527.1345   1425.82886     635.4240     527.1345
   1425.81360     637.2485     529.1329   1425.81360     637.2485     529.1329
   1425.79834     639.7255     531.2171   1425.79834     639.7255     531.2171
   1425.78308     641.1064     534.0912   1425.78308     641.1064     534.0912
   1425.76782     642.1223     536.0511   1425.76782     642.1223     536.0511
   1425.75256     643.1760     538.4635   1425.75256     643.1760     538.4635
   1425.73730     644.7145     541.3377   1425.73730     644.7145     541.3377
   1425.72205     646.4860     542.9824   1425.72205     646.4860     542.9824
   1425.70679     648.6501     544.5231   1425.70679     648.6501     544.5231
   1425.69153     650.2969     546.8261   1425.69153     650.2969     546.8261
   1425.67627     652.1762     549.2498   1425.67627     652.1762     549.2498
   1425.66101     652.6280     551.5480   1425.66101     652.6280     551.5480
   1425.64575     654.9063     553.1571   1425.64575     654.9063     553.1571
   1425.63049     656.3041     555.7700   1425.63049     656.3041     555.7700
   1425.61523     657.5370     557.2413   1425.61523     657.5370     557.2413
   1425.59998     659.3616     560.0202   1425.59998     659.3616     560.0202
   1425.58472     661.3282     561.5660   1425.58472     661.3282     561.5660
   1425.56946     662.5787     563.6295   1425.56946     662.5787     563.6295
   1425.55420     663.7660     564.9431   1425.55420     663.7660     564.9431
   1425.53894     663.6837     567.0075   1425.53894     663.6837     567.0075
   1425.52368     666.4637     568.5272   1425.52368     666.4637     568.5272
   1425.50842     667.1757     571.4619   1425.50842     667.1757     571.4619
   1425.49316     668.2440     573.1888   1425.49316     668.2440     573.1888
   1425.47791     669.8820     574.5382   1425.47791     669.8820     574.5382
   1425.46265     670.4085     577.3902   1425.46265     670.4085     577.3902
   1425.44739     670.2726     579.0843   1425.44739     670.2726     579.0843
   1425.43213     672.5619     580.3339   1425.43213     672.5619     580.3339
   1425.41687     674.0515     582.6279   1425.41687     674.0515     582.6279
   1425.40161     674.7217     583.5005   1425.40161     674.7217     583.5005
   1425.38635     676.3075     585.5302   1425.38635     676.3075     585.5302
   1425.37109     676.5376     587.3251   1425.37109     676.5376     587.3251
   1425.35583     677.6190     589.4847   1425.35583     677.6190     589.4847
   1425.34058     678.3284     590.8937   1425.34058     678.3284     590.8937
   1425.32532     680.3708     591.7950   1425.32532     680.3708     591.7950
   1425.31006     681.4276     593.7925   1425.31006     681.4276     593.7925
   1425.29480     681.4763     595.0593   1425.29480     681.4763     595.0593
   1425.27954     682.2491     597.2686   1425.27954     682.2491     597.2686
   1425.26428     681.7787     598.6600   1425.26428     681.7787     598.6600
   1425.24902     683.4442     600.4572   1425.24902     683.4442     600.4572
   1425.23376     684.5063     601.7660   1425.23376     684.5063     601.7660
   1425.21851     685.5847     603.1290   1425.21851     685.5847     603.1290
   1425.20325     686.4481     604.0261   1425.20325     686.4481     604.0261
   1425.18799     687.6558     606.5200   1425.18799     687.6558     606.5200
   1425.17273     689.2822     607.5633   1425.17273     689.2822     607.5633
   1425.15747     688.8668     608.7784   1425.15747     688.8668     608.7784
   1425.14221     688.7915     610.8091   1425.14221     688.7915     610.8091
   1425.12695     689.5605     611.9233   1425.12695     689.5605     611.9233
   1425.11169     691.0436     613.2195   1425.11169     691.0436     613.2195
   1425.09644     689.5429     614.2601   1425.09644     689.5429     614.2601
   1425.08118     691.6815     616.4401   1425.08118     691.6815     616.4401
   1425.06592     692.5038     616.6266   1425.06592     692.5038     616.6266
   1425.05066     691.9422     618.6335   1425.05066     691.9422     618.6335
   1425.03540     693.8194     620.1017   1425.03540     693.8194     620.1017
   1425.02014     694.1101     621.4493   1425.02014     694.1101     621.4493
   1425.00488     693.9728     621.9795   1425.00488     693.9728     621.9795
   1424.98962     694.1948     623.4839   1424.98962     694.1948     623.4839
   1424.97437     695.8121     624.1980   1424.97437     695.8121     624.1980
   1424.95911     695.3288     625.5493   1424.95911     695.3288     625.5493
   1424.94385     695.7630     626.7208   1424.94385     695.7630     626.7208
   1424.92859     695.9972     626.9917   1424.92859     695.9972     626.9917
   1424.91333     695.6335     629.5474   1424.91333     695.6335     629.5474
   1424.89807     697.8300     630.0280   1424.89807     697.8300     630.0280
   1424.88281     698.1094     631.9700   1424.88281     698.1094     631.9700
   1424.86755     697.0435     631.6731   1424.86755     697.0435     631.6731
   1424.85229     696.5683     632.9734   1424.85229     696.5683     632.9734
   1424.83704     699.5983     634.6605   1424.83704     699.5983     634.6605
   1424.82178     698.3817     633.6634   1424.82178     698.3817     633.6634
   1424.80652     698.8172     636.5541   1424.80652     698.8172     636.5541
   1424.79126     698.4697     636.4020   1424.79126     698.4697     636.4020
   1424.77600     697.9227     637.3956   1424.77600     697.9227     637.3956
   1424.76074     698.6675     639.0295   1424.76074     698.6675     639.0295
   1424.74548     700.0589     639.1958   1424.74548     700.0589     639.1958
   1424.73022     700.6219     640.2106   1424.73022     700.6219     640.2106
   1424.71497     699.2822     640.1580   1424.71497     699.2822     640.1580
   1424.69971     698.9894     641.6140   1424.69971     698.9894     641.6140
   1424.68445     699.9834     642.0942   1424.68445     699.9834     642.0942
   1424.66919     700.8175     642.5081   1424.66919     700.8175     642.5081
   1424.65393     700.6116     643.7601   1424.65393     700.6116     643.7601
   1424.63867     700.6588     644.4105   1424.63867     700.6588     644.4105
   1424.62341     700.0032     645.1479   1424.62341     700.0032     645.1479
   1424.60815     699.6179     645.4363   1424.60815     699.6179     645.4363
   1424.59290     700.0264     646.3699   1424.59290     700.0264     646.3699
   1424.57764     701.2628     646.6096   1424.57764     701.2628     646.6096
   1424.56238     700.3862     648.0493   1424.56238     700.3862     648.0493
   1424.54712     700.6864     648.2063   1424.54712     700.6864     648.2063
   1424.53186     700.8232     648.3913   1424.53186     700.8232     648.3913
   1424.51660     700.5901     649.3569   1424.51660     700.5901     649.3569
   1424.50134     701.2817     649.9453   1424.50134     701.2817     649.9453
   1424.48608     700.3853     649.8408   1424.48608     700.3853     649.8408
   1424.47083     700.9905     650.4288   1424.47083     700.9905     650.4288
   1424.45557     700.8015     650.2914   1424.45557     700.8015     650.2914
   1424.44031     700.7551     651.3841   1424.44031     700.7551     651.3841
   1424.42505     700.7836     652.2944   1424.42505     700.7836     652.2944
   1424.40979     700.9449     652.4059   1424.40979     700.9449     652.4059
   1424.39453     699.9828     652.3059   1424.39453     699.9828     652.3059
   1424.37927     701.3526     652.7806   1424.37927     701.3526     652.7806
   1424.36401     700.1439     652.4043   1424.36401     700.1439     652.4043
   1424.34875     700.4423     653.5078   1424.34875     700.4423     653.5078
   1424.33350     699.9430     653.4269   1424.33350     699.9430     653.4269
   1424.31824     700.2683     653.6806   1424.31824     700.2683     653.6806
   1424.30298     700.4573     652.8882   1424.30298     700.4573     652.8882
   1424.28772     701.0197     654.3241   1424.28772     701.0197     654.3241
   1424.27246     699.5350     653.5379   1424.27246     699.5350     653.5379
   1424.25720     700.1621     654.3621   1424.25720     700.1621     654.3621
   1424.24194     699.9453     653.9992   1424.24194     699.9453     653.9992
   1424.22668     699.1377     654.1312   1424.22668     699.1377     654.1312
   1424.21143     698.6259     655.5243   1424.21143     698.6259     655.5243
   1424.19617     699.2955     655.1789   1424.19617     699.2955     655.1789
   1424.18091     699.2878     654.0430   1424.18091     699.2878     654.0430
   1424.16565     697.6489     654.5747   1424.16565     697.6489     654.5747
