#     FILENAME=!Skynet_57528_lach-hhg-147_20487_20971.cyb.fits
#     BASENAME=Skynet_57528_lach-hhg-147_20487_20971
#     SRC_NAME=lach-hhg-147
#     OBSERVER=hhgmadison16_9500
#     DATE_OBS=2016-05-20T17:31:36.000
#        OBSID=20487
#      SCANNUM=20971
#          MJD=57528.7313
#          UTC=63185
#     SCANTYPE=track
#     DATAMODE=HIRES
#     TUNEFREQ=1420.0000
# Actual_FREQ1=1420.0000
# Actual_FREQ2=1420.0000
#    LO1Tuning=6870.000
#     RFFILTER=1355_1435
#        OBSBW=-15.6250
#        NCHAN=1024 
#        FOCUS=37.0489
#           RA=03:49:03.89
#          DEC=54:21:07.35
#      RA(hrs)=3.817700
#     DEC(deg)=54.352000
#    AZIM(deg)=350.555
#    ELEV(deg)=73.692
#     IFattens=10.00, 9.00
#      WARNING=None
#    TCAL_XL1=7.9635
#    TCAL_YR1=9.1340
#    TCAL_XL2=7.9635
#    TCAL_YR2=9.1340
#     TRX_XL1=11.7060
#     TRX_YR1=11.7060
#     TRX_XL2=11.7060
#     TRX_YR2=11.7060
#        TAVE=1.0000
#Freq1(MHz)          XL1          YR1  Freq2(MHz)          XL2          YR2 

   1427.81250     376.4614     329.1957   1427.81250     376.4614     329.1957
   1427.79724     377.2549     331.0787   1427.79724     377.2549     331.0787
   1427.78198     378.2828     332.0256   1427.78198     378.2828     332.0256
   1427.76672     379.0798     333.8299   1427.76672     379.0798     333.8299
   1427.75146     379.8449     335.0764   1427.75146     379.8449     335.0764
   1427.73621     380.8706     336.2351   1427.73621     380.8706     336.2351
   1427.72095     382.0548     337.7064   1427.72095     382.0548     337.7064
   1427.70569     382.8614     339.3892   1427.70569     382.8614     339.3892
   1427.69043     384.3501     340.2466   1427.69043     384.3501     340.2466
   1427.67517     384.5367     342.1776   1427.67517     384.5367     342.1776
   1427.65991     385.9317     343.2867   1427.65991     385.9317     343.2867
   1427.64465     387.0196     345.4208   1427.64465     387.0196     345.4208
   1427.62939     388.7636     347.0999   1427.62939     388.7636     347.0999
   1427.61414     390.3106     348.8998   1427.61414     390.3106     348.8998
   1427.59888     391.0280     350.3874   1427.59888     391.0280     350.3874
   1427.58362     392.5582     352.0312   1427.58362     392.5582     352.0312
   1427.56836     393.9238     353.6924   1427.56836     393.9238     353.6924
   1427.55310     395.4086     355.1603   1427.55310     395.4086     355.1603
   1427.53784     397.3386     357.0646   1427.53784     397.3386     357.0646
   1427.52258     398.8641     359.1726   1427.52258     398.8641     359.1726
   1427.50732     399.5738     361.2570   1427.50732     399.5738     361.2570
   1427.49207     401.1155     363.1530   1427.49207     401.1155     363.1530
   1427.47681     404.2427     364.8102   1427.47681     404.2427     364.8102
   1427.46155     405.9316     366.6273   1427.46155     405.9316     366.6273
   1427.44629     407.5789     368.6776   1427.44629     407.5789     368.6776
   1427.43103     409.2783     370.7456   1427.43103     409.2783     370.7456
   1427.41577     411.2900     372.3729   1427.41577     411.2900     372.3729
   1427.40051     413.6386     374.7475   1427.40051     413.6386     374.7475
   1427.38525     415.8942     376.1438   1427.38525     415.8942     376.1438
   1427.37000     416.9107     378.2018   1427.37000     416.9107     378.2018
   1427.35474     418.7094     380.0098   1427.35474     418.7094     380.0098
   1427.33948     422.0827     382.9310   1427.33948     422.0827     382.9310
   1427.32422     423.3560     384.6129   1427.32422     423.3560     384.6129
   1427.30896     425.6852     386.0904   1427.30896     425.6852     386.0904
   1427.29370     427.7770     388.5525   1427.29370     427.7770     388.5525
   1427.27844     430.5602     391.1436   1427.27844     430.5602     391.1436
   1427.26318     433.3484     392.9739   1427.26318     433.3484     392.9739
   1427.24792     434.6696     394.8361   1427.24792     434.6696     394.8361
   1427.23267     437.4382     396.7849   1427.23267     437.4382     396.7849
   1427.21741     439.4369     399.0297   1427.21741     439.4369     399.0297
   1427.20215     442.6029     402.1677   1427.20215     442.6029     402.1677
   1427.18689     444.9277     404.0411   1427.18689     444.9277     404.0411
   1427.17163     447.4649     405.9714   1427.17163     447.4649     405.9714
   1427.15637     450.6344     407.5209   1427.15637     450.6344     407.5209
   1427.14111     452.9727     410.4846   1427.14111     452.9727     410.4846
   1427.12585     456.2639     412.6853   1427.12585     456.2639     412.6853
   1427.11060     458.3986     414.7951   1427.11060     458.3986     414.7951
   1427.09534     460.2879     416.3645   1427.09534     460.2879     416.3645
   1427.08008     463.8458     418.8458   1427.08008     463.8458     418.8458
   1427.06482     465.7355     420.8021   1427.06482     465.7355     420.8021
   1427.04956     469.6708     423.6294   1427.04956     469.6708     423.6294
   1427.03430     472.1487     425.2353   1427.03430     472.1487     425.2353
   1427.01904     473.9471     427.7643   1427.01904     473.9471     427.7643
   1427.00378     476.7700     429.8264   1427.00378     476.7700     429.8264
   1426.98853     480.9109     431.7529   1426.98853     480.9109     431.7529
   1426.97327     483.5293     433.9496   1426.97327     483.5293     433.9496
   1426.95801     486.2104     436.0873   1426.95801     486.2104     436.0873
   1426.94275     489.0748     438.3495   1426.94275     489.0748     438.3495
   1426.92749     491.9035     440.2547   1426.92749     491.9035     440.2547
   1426.91223     494.7756     442.5883   1426.91223     494.7756     442.5883
   1426.89697     497.9223     445.0173   1426.89697     497.9223     445.0173
   1426.88171     501.4118     446.2646   1426.88171     501.4118     446.2646
   1426.86646     503.4284     449.0659   1426.86646     503.4284     449.0659
   1426.85120     507.1737     450.9077   1426.85120     507.1737     450.9077
   1426.83594     509.9481     451.6951   1426.83594     509.9481     451.6951
   1426.82068     513.4902     455.1053   1426.82068     513.4902     455.1053
   1426.80542     515.7310     457.0747   1426.80542     515.7310     457.0747
   1426.79016     519.6210     459.2105   1426.79016     519.6210     459.2105
   1426.77490     522.1810     461.5463   1426.77490     522.1810     461.5463
   1426.75964     525.1140     463.6666   1426.75964     525.1140     463.6666
   1426.74438     528.7653     465.8921   1426.74438     528.7653     465.8921
   1426.72913     531.2873     467.3340   1426.72913     531.2873     467.3340
   1426.71387     534.7324     469.4785   1426.71387     534.7324     469.4785
   1426.69861     538.3076     472.1389   1426.69861     538.3076     472.1389
   1426.68335     540.4423     473.7972   1426.68335     540.4423     473.7972
   1426.66809     544.2167     476.9703   1426.66809     544.2167     476.9703
   1426.65283     547.6815     477.4710   1426.65283     547.6815     477.4710
   1426.63757     551.4870     478.7763   1426.63757     551.4870     478.7763
   1426.62231     556.6184     482.0865   1426.62231     556.6184     482.0865
   1426.60706     557.5136     484.0765   1426.60706     557.5136     484.0765
   1426.59180     559.8586     485.2119   1426.59180     559.8586     485.2119
   1426.57654     563.1217     487.3432   1426.57654     563.1217     487.3432
   1426.56128     567.2430     489.0359   1426.56128     567.2430     489.0359
   1426.54602     570.0391     490.5187   1426.54602     570.0391     490.5187
   1426.53076     573.7257     492.2329   1426.53076     573.7257     492.2329
   1426.51550     576.1854     495.0267   1426.51550     576.1854     495.0267
   1426.50024     578.7084     496.5784   1426.50024     578.7084     496.5784
   1426.48499     581.7496     498.7599   1426.48499     581.7496     498.7599
   1426.46973     584.5306     500.0554   1426.46973     584.5306     500.0554
   1426.45447     588.0731     502.4533   1426.45447     588.0731     502.4533
   1426.43921     592.3154     503.4644   1426.43921     592.3154     503.4644
   1426.42395     594.2700     505.4926   1426.42395     594.2700     505.4926
   1426.40869     597.1209     507.6067   1426.40869     597.1209     507.6067
   1426.39343     600.9900     510.0131   1426.39343     600.9900     510.0131
   1426.37817     604.3105     510.7986   1426.37817     604.3105     510.7986
   1426.36292     607.1512     512.6956   1426.36292     607.1512     512.6956
   1426.34766     609.6721     513.5928   1426.34766     609.6721     513.5928
   1426.33240     612.2298     516.0581   1426.33240     612.2298     516.0581
   1426.31714     615.8277     517.7256   1426.31714     615.8277     517.7256
   1426.30188     619.3375     519.3284   1426.30188     619.3375     519.3284
   1426.28662     622.2493     520.9583   1426.28662     622.2493     520.9583
   1426.27136     624.1653     522.7125   1426.27136     624.1653     522.7125
   1426.25610     628.1952     523.8511   1426.25610     628.1952     523.8511
   1426.24084     630.5331     526.1961   1426.24084     630.5331     526.1961
   1426.22559     634.7415     527.1768   1426.22559     634.7415     527.1768
   1426.21033     636.3568     528.9434   1426.21033     636.3568     528.9434
   1426.19507     640.1440     530.3167   1426.19507     640.1440     530.3167
   1426.17981     641.7819     531.2335   1426.17981     641.7819     531.2335
   1426.16455     645.4039     533.5589   1426.16455     645.4039     533.5589
   1426.14929     648.1391     534.5502   1426.14929     648.1391     534.5502
   1426.13403     651.6212     536.7211   1426.13403     651.6212     536.7211
   1426.11877     653.4907     537.9709   1426.11877     653.4907     537.9709
   1426.10352     655.8503     540.0314   1426.10352     655.8503     540.0314
   1426.08826     658.5435     541.4807   1426.08826     658.5435     541.4807
   1426.07300     662.1129     542.8690   1426.07300     662.1129     542.8690
   1426.05774     664.0071     543.9926   1426.05774     664.0071     543.9926
   1426.04248     666.6080     545.2470   1426.04248     666.6080     545.2470
   1426.02722     669.4288     546.6625   1426.02722     669.4288     546.6625
   1426.01196     672.0319     547.7310   1426.01196     672.0319     547.7310
   1425.99670     674.5091     548.7598   1425.99670     674.5091     548.7598
   1425.98145     677.1307     550.3035   1425.98145     677.1307     550.3035
   1425.96619     680.3052     552.3491   1425.96619     680.3052     552.3491
   1425.95093     683.1631     552.8891   1425.95093     683.1631     552.8891
   1425.93567     684.2369     553.9565   1425.93567     684.2369     553.9565
   1425.92041     685.2195     556.6527   1425.92041     685.2195     556.6527
   1425.90515     688.4692     556.5851   1425.90515     688.4692     556.5851
   1425.88989     690.6990     557.8011   1425.88989     690.6990     557.8011
   1425.87463     693.7973     559.4817   1425.87463     693.7973     559.4817
   1425.85938     696.7242     560.2036   1425.85938     696.7242     560.2036
   1425.84412     698.2031     561.9473   1425.84412     698.2031     561.9473
   1425.82886     701.5604     562.8814   1425.82886     701.5604     562.8814
   1425.81360     701.8338     563.4076   1425.81360     701.8338     563.4076
   1425.79834     704.0967     565.0134   1425.79834     704.0967     565.0134
   1425.78308     706.6368     566.0448   1425.78308     706.6368     566.0448
   1425.76782     708.8872     567.0905   1425.76782     708.8872     567.0905
   1425.75256     711.0561     568.6368   1425.75256     711.0561     568.6368
   1425.73730     714.2303     569.0303   1425.73730     714.2303     569.0303
   1425.72205     714.0731     570.7543   1425.72205     714.0731     570.7543
   1425.70679     717.0704     571.0927   1425.70679     717.0704     571.0927
   1425.69153     720.2856     572.3251   1425.69153     720.2856     572.3251
   1425.67627     720.9208     572.9984   1425.67627     720.9208     572.9984
   1425.66101     722.6028     574.5356   1425.66101     722.6028     574.5356
   1425.64575     725.0173     575.5572   1425.64575     725.0173     575.5572
   1425.63049     727.7822     576.2747   1425.63049     727.7822     576.2747
   1425.61523     728.3622     577.8941   1425.61523     728.3622     577.8941
   1425.59998     729.7770     577.9231   1425.59998     729.7770     577.9231
   1425.58472     732.0686     579.8456   1425.58472     732.0686     579.8456
   1425.56946     732.7967     579.8032   1425.56946     732.7967     579.8032
   1425.55420     735.1804     581.3060   1425.55420     735.1804     581.3060
   1425.53894     737.3543     581.2275   1425.53894     737.3543     581.2275
   1425.52368     739.2362     582.5589   1425.52368     739.2362     582.5589
   1425.50842     739.0281     583.5559   1425.50842     739.0281     583.5559
   1425.49316     741.2229     585.1913   1425.49316     741.2229     585.1913
   1425.47791     743.8687     585.5276   1425.47791     743.8687     585.5276
   1425.46265     744.3324     585.0276   1425.46265     744.3324     585.0276
   1425.44739     745.5466     586.3525   1425.44739     745.5466     586.3525
   1425.43213     748.2184     586.6282   1425.43213     748.2184     586.6282
   1425.41687     749.7371     587.9396   1425.41687     749.7371     587.9396
   1425.40161     750.1752     588.9202   1425.40161     750.1752     588.9202
   1425.38635     750.9784     589.6255   1425.38635     750.9784     589.6255
   1425.37109     751.9115     590.8109   1425.37109     751.9115     590.8109
   1425.35583     752.7557     590.4373   1425.35583     752.7557     590.4373
   1425.34058     754.7129     591.8583   1425.34058     754.7129     591.8583
   1425.32532     755.5802     592.4813   1425.32532     755.5802     592.4813
   1425.31006     757.1944     593.5712   1425.31006     757.1944     593.5712
   1425.29480     757.7266     594.3669   1425.29480     757.7266     594.3669
   1425.27954     759.2084     592.9276   1425.27954     759.2084     592.9276
   1425.26428     760.2754     594.9949   1425.26428     760.2754     594.9949
   1425.24902     761.6105     595.7189   1425.24902     761.6105     595.7189
   1425.23376     761.9016     596.1989   1425.23376     761.9016     596.1989
   1425.21851     762.6959     596.3936   1425.21851     762.6959     596.3936
   1425.20325     764.1649     597.0659   1425.20325     764.1649     597.0659
   1425.18799     765.4523     598.1222   1425.18799     765.4523     598.1222
   1425.17273     765.8771     597.7767   1425.17273     765.8771     597.7767
   1425.15747     766.3000     598.9395   1425.15747     766.3000     598.9395
   1425.14221     767.5811     599.2464   1425.14221     767.5811     599.2464
   1425.12695     768.1746     600.1981   1425.12695     768.1746     600.1981
   1425.11169     768.4901     600.3134   1425.11169     768.4901     600.3134
   1425.09644     768.6585     601.9206   1425.09644     768.6585     601.9206
   1425.08118     769.9616     601.6817   1425.08118     769.9616     601.6817
   1425.06592     770.6608     601.7832   1425.06592     770.6608     601.7832
   1425.05066     771.4133     602.1516   1425.05066     771.4133     602.1516
   1425.03540     771.8300     602.9904   1425.03540     771.8300     602.9904
   1425.02014     771.2488     603.2073   1425.02014     771.2488     603.2073
   1425.00488     773.0682     604.1667   1425.00488     773.0682     604.1667
   1424.98962     772.8414     604.8943   1424.98962     772.8414     604.8943
   1424.97437     773.5561     603.6351   1424.97437     773.5561     603.6351
   1424.95911     774.9957     605.2130   1424.95911     774.9957     605.2130
   1424.94385     774.4295     605.1386   1424.94385     774.4295     605.1386
   1424.92859     774.3876     606.3999   1424.92859     774.3876     606.3999
   1424.91333     776.0220     605.7802   1424.91333     776.0220     605.7802
   1424.89807     775.6717     605.8016   1424.89807     775.6717     605.8016
   1424.88281     776.2852     607.3333   1424.88281     776.2852     607.3333
   1424.86755     777.0010     606.6813   1424.86755     777.0010     606.6813
   1424.85229     775.1174     607.5873   1424.85229     775.1174     607.5873
   1424.83704     775.7206     607.7020   1424.83704     775.7206     607.7020
   1424.82178     777.2589     607.1677   1424.82178     777.2589     607.1677
   1424.80652     777.1202     608.5739   1424.80652     777.1202     608.5739
   1424.79126     778.4221     608.4297   1424.79126     778.4221     608.4297
   1424.77600     777.2365     608.0083   1424.77600     777.2365     608.0083
   1424.76074     777.5726     608.8879   1424.76074     777.5726     608.8879
   1424.74548     777.4048     608.7343   1424.74548     777.4048     608.7343
   1424.73022     776.7753     609.5605   1424.73022     776.7753     609.5605
   1424.71497     777.7557     609.9146   1424.71497     777.7557     609.9146
   1424.69971     778.8060     610.4272   1424.69971     778.8060     610.4272
   1424.68445     777.4404     609.2932   1424.68445     777.4404     609.2932
   1424.66919     777.7610     609.6912   1424.66919     777.7610     609.6912
   1424.65393     778.5215     610.4805   1424.65393     778.5215     610.4805
   1424.63867     778.3098     610.1251   1424.63867     778.3098     610.1251
   1424.62341     778.3877     611.2634   1424.62341     778.3877     611.2634
   1424.60815     778.2380     610.1310   1424.60815     778.2380     610.1310
   1424.59290     776.2029     610.6710   1424.59290     776.2029     610.6710
   1424.57764     776.2091     610.8118   1424.57764     776.2091     610.8118
   1424.56238     776.7535     611.5665   1424.56238     776.7535     611.5665
   1424.54712     776.6408     611.1420   1424.54712     776.6408     611.1420
   1424.53186     777.6714     611.9325   1424.53186     777.6714     611.9325
   1424.51660     776.5054     612.2317   1424.51660     776.5054     612.2317
   1424.50134     775.4166     612.7587   1424.50134     775.4166     612.7587
   1424.48608     776.8243     611.9302   1424.48608     776.8243     611.9302
   1424.47083     775.1917     611.0082   1424.47083     775.1917     611.0082
   1424.45557     775.0009     611.5457   1424.45557     775.0009     611.5457
   1424.44031     776.7561     611.1063   1424.44031     776.7561     611.1063
   1424.42505     774.0483     611.0680   1424.42505     774.0483     611.0680
   1424.40979     774.0235     611.8658   1424.40979     774.0235     611.8658
   1424.39453     773.4073     611.4736   1424.39453     773.4073     611.4736
   1424.37927     774.7872     612.4267   1424.37927     774.7872     612.4267
   1424.36401     773.4003     611.7062   1424.36401     773.4003     611.7062
   1424.34875     773.3497     611.9321   1424.34875     773.3497     611.9321
   1424.33350     772.2249     612.1928   1424.33350     772.2249     612.1928
   1424.31824     772.3558     611.6705   1424.31824     772.3558     611.6705
   1424.30298     772.0518     611.7730   1424.30298     772.0518     611.7730
   1424.28772     771.4377     612.3097   1424.28772     771.4377     612.3097
   1424.27246     770.7164     611.2135   1424.27246     770.7164     611.2135
   1424.25720     769.8552     612.1843   1424.25720     769.8552     612.1843
   1424.24194     769.2336     612.0184   1424.24194     769.2336     612.0184
   1424.22668     768.4550     612.1044   1424.22668     768.4550     612.1044
   1424.21143     768.4105     612.6952   1424.21143     768.4105     612.6952
   1424.19617     768.8182     611.3954   1424.19617     768.8182     611.3954
   1424.18091     768.3090     611.2820   1424.18091     768.3090     611.2820
   1424.16565     769.0522     611.7527   1424.16565     769.0522     611.7527
