#     FILENAME=!Skynet_57528_lach-hhg-171_20554_20994.cyb.fits
#     BASENAME=Skynet_57528_lach-hhg-171_20554_20994
#     SRC_NAME=lach-hhg-171
#     OBSERVER=hhgmadison16_9500
#     DATE_OBS=2016-05-20T18:22:00.370
#        OBSID=20554
#      SCANNUM=20994
#          MJD=57528.7663
#          UTC=66210
#     SCANTYPE=track
#     DATAMODE=HIRES
#     TUNEFREQ=1420.0000
# Actual_FREQ1=1420.0000
# Actual_FREQ2=1420.0000
#    LO1Tuning=6870.000
#     RFFILTER=1355_1435
#        OBSBW=-15.6250
#        NCHAN=1024 
#        FOCUS=37.0489
#           RA=05:22:19.23
#          DEC=36:29:37.35
#      RA(hrs)=5.372000
#     DEC(deg)=36.493700
#    AZIM(deg)=108.807
#    ELEV(deg)=84.521
#     IFattens=11.00, 10.00
#      WARNING=None
#    TCAL_XL1=7.9635
#    TCAL_YR1=9.1340
#    TCAL_XL2=7.9635
#    TCAL_YR2=9.1340
#     TRX_XL1=11.7060
#     TRX_YR1=11.7060
#     TRX_XL2=11.7060
#     TRX_YR2=11.7060
#        TAVE=1.0000
#Freq1(MHz)          XL1          YR1  Freq2(MHz)          XL2          YR2 

   1427.81250     296.7508     272.5097   1427.81250     296.7508     272.5097
   1427.79724     296.9702     273.4460   1427.79724     296.9702     273.4460
   1427.78198     297.3918     275.1211   1427.78198     297.3918     275.1211
   1427.76672     297.7267     276.2637   1427.76672     297.7267     276.2637
   1427.75146     298.9661     277.5835   1427.75146     298.9661     277.5835
   1427.73621     299.1330     279.4293   1427.73621     299.1330     279.4293
   1427.72095     299.5491     280.4236   1427.72095     299.5491     280.4236
   1427.70569     301.2724     282.2664   1427.70569     301.2724     282.2664
   1427.69043     300.8542     283.9973   1427.69043     300.8542     283.9973
   1427.67517     302.7486     285.0990   1427.67517     302.7486     285.0990
   1427.65991     303.6223     286.7322   1427.65991     303.6223     286.7322
   1427.64465     304.5696     289.2115   1427.64465     304.5696     289.2115
   1427.62939     304.7189     290.4658   1427.62939     304.7189     290.4658
   1427.61414     305.6841     291.9567   1427.61414     305.6841     291.9567
   1427.59888     307.0210     294.3068   1427.59888     307.0210     294.3068
   1427.58362     307.8780     296.1336   1427.58362     307.8780     296.1336
   1427.56836     308.6596     297.9349   1427.56836     308.6596     297.9349
   1427.55310     310.0175     299.8016   1427.55310     310.0175     299.8016
   1427.53784     311.5037     301.8595   1427.53784     311.5037     301.8595
   1427.52258     312.3376     303.7691   1427.52258     312.3376     303.7691
   1427.50732     313.8359     305.7246   1427.50732     313.8359     305.7246
   1427.49207     314.9159     307.4128   1427.49207     314.9159     307.4128
   1427.47681     316.4488     309.8959   1427.47681     316.4488     309.8959
   1427.46155     317.7305     311.7650   1427.46155     317.7305     311.7650
   1427.44629     319.1473     313.9794   1427.44629     319.1473     313.9794
   1427.43103     320.8510     315.8563   1427.43103     320.8510     315.8563
   1427.41577     321.8534     318.4922   1427.41577     321.8534     318.4922
   1427.40051     323.4565     320.3841   1427.40051     323.4565     320.3841
   1427.38525     325.4366     322.9629   1427.38525     325.4366     322.9629
   1427.37000     326.5237     324.6849   1427.37000     326.5237     324.6849
   1427.35474     328.4668     326.7625   1427.35474     328.4668     326.7625
   1427.33948     330.5201     329.2507   1427.33948     330.5201     329.2507
   1427.32422     331.6780     331.5638   1427.32422     331.6780     331.5638
   1427.30896     334.1836     334.3217   1427.30896     334.1836     334.3217
   1427.29370     335.4035     335.9323   1427.29370     335.4035     335.9323
   1427.27844     337.0454     338.7704   1427.27844     337.0454     338.7704
   1427.26318     339.0446     341.3774   1427.26318     339.0446     341.3774
   1427.24792     341.1215     343.6335   1427.24792     341.1215     343.6335
   1427.23267     342.4981     346.0627   1427.23267     342.4981     346.0627
   1427.21741     344.7243     348.3010   1427.21741     344.7243     348.3010
   1427.20215     346.5451     350.4167   1427.20215     346.5451     350.4167
   1427.18689     347.7267     353.1672   1427.18689     347.7267     353.1672
   1427.17163     350.4966     355.7574   1427.17163     350.4966     355.7574
   1427.15637     351.8398     358.2138   1427.15637     351.8398     358.2138
   1427.14111     354.5916     361.0527   1427.14111     354.5916     361.0527
   1427.12585     356.5916     363.2090   1427.12585     356.5916     363.2090
   1427.11060     358.4380     365.4084   1427.11060     358.4380     365.4084
   1427.09534     360.8951     368.1802   1427.09534     360.8951     368.1802
   1427.08008     362.3698     370.2558   1427.08008     362.3698     370.2558
   1427.06482     364.7670     372.2243   1427.06482     364.7670     372.2243
   1427.04956     366.1947     375.4888   1427.04956     366.1947     375.4888
   1427.03430     369.2785     378.4498   1427.03430     369.2785     378.4498
   1427.01904     371.5398     380.9813   1427.01904     371.5398     380.9813
   1427.00378     373.8767     383.2938   1427.00378     373.8767     383.2938
   1426.98853     375.9432     385.1422   1426.98853     375.9432     385.1422
   1426.97327     377.7249     388.8792   1426.97327     377.7249     388.8792
   1426.95801     380.2750     390.7131   1426.95801     380.2750     390.7131
   1426.94275     382.1031     393.4570   1426.94275     382.1031     393.4570
   1426.92749     385.1747     395.5973   1426.92749     385.1747     395.5973
   1426.91223     387.1818     397.7593   1426.91223     387.1818     397.7593
   1426.89697     389.4470     400.7808   1426.89697     389.4470     400.7808
   1426.88171     392.2984     402.8718   1426.88171     392.2984     402.8718
   1426.86646     393.6890     405.8372   1426.86646     393.6890     405.8372
   1426.85120     396.9694     407.6371   1426.85120     396.9694     407.6371
   1426.83594     398.8816     410.6913   1426.83594     398.8816     410.6913
   1426.82068     401.7346     412.5743   1426.82068     401.7346     412.5743
   1426.80542     403.1890     414.8350   1426.80542     403.1890     414.8350
   1426.79016     405.7854     417.1475   1426.79016     405.7854     417.1475
   1426.77490     408.4471     419.9600   1426.77490     408.4471     419.9600
   1426.75964     411.1108     421.8200   1426.75964     411.1108     421.8200
   1426.74438     413.9865     424.5536   1426.74438     413.9865     424.5536
   1426.72913     416.1961     427.1206   1426.72913     416.1961     427.1206
   1426.71387     418.3769     429.0908   1426.71387     418.3769     429.0908
   1426.69861     420.7060     430.2478   1426.69861     420.7060     430.2478
   1426.68335     422.8042     433.0013   1426.68335     422.8042     433.0013
   1426.66809     425.5691     435.8561   1426.66809     425.5691     435.8561
   1426.65283     427.7567     438.1505   1426.65283     427.7567     438.1505
   1426.63757     430.9665     440.3857   1426.63757     430.9665     440.3857
   1426.62231     435.9386     445.8879   1426.62231     435.9386     445.8879
   1426.60706     435.1712     444.4054   1426.60706     435.1712     444.4054
   1426.59180     437.6181     446.4337   1426.59180     437.6181     446.4337
   1426.57654     439.9030     449.1162   1426.57654     439.9030     449.1162
   1426.56128     442.3967     450.9630   1426.56128     442.3967     450.9630
   1426.54602     445.2380     452.8436   1426.54602     445.2380     452.8436
   1426.53076     448.2861     454.2241   1426.53076     448.2861     454.2241
   1426.51550     449.8251     456.3124   1426.51550     449.8251     456.3124
   1426.50024     452.6249     458.4998   1426.50024     452.6249     458.4998
   1426.48499     454.4639     460.7559   1426.48499     454.4639     460.7559
   1426.46973     457.4322     463.2715   1426.46973     457.4322     463.2715
   1426.45447     459.6298     464.0381   1426.45447     459.6298     464.0381
   1426.43921     461.3347     466.1041   1426.43921     461.3347     466.1041
   1426.42395     464.8682     468.0857   1426.42395     464.8682     468.0857
   1426.40869     467.2483     469.5582   1426.40869     467.2483     469.5582
   1426.39343     470.6533     472.2880   1426.39343     470.6533     472.2880
   1426.37817     471.7236     473.7614   1426.37817     471.7236     473.7614
   1426.36292     474.1559     475.1091   1426.36292     474.1559     475.1091
   1426.34766     475.9415     477.7621   1426.34766     475.9415     477.7621
   1426.33240     478.5906     479.2591   1426.33240     478.5906     479.2591
   1426.31714     481.8539     480.8520   1426.31714     481.8539     480.8520
   1426.30188     482.8758     482.9320   1426.30188     482.8758     482.9320
   1426.28662     485.9915     483.9835   1426.28662     485.9915     483.9835
   1426.27136     487.8893     484.6307   1426.27136     487.8893     484.6307
   1426.25610     490.1042     486.9585   1426.25610     490.1042     486.9585
   1426.24084     492.5245     488.8923   1426.24084     492.5245     488.8923
   1426.22559     494.0698     490.5890   1426.22559     494.0698     490.5890
   1426.21033     496.4021     491.0882   1426.21033     496.4021     491.0882
   1426.19507     498.5265     492.9203   1426.19507     498.5265     492.9203
   1426.17981     500.7691     494.0745   1426.17981     500.7691     494.0745
   1426.16455     503.4036     495.6240   1426.16455     503.4036     495.6240
   1426.14929     505.4726     497.0015   1426.14929     505.4726     497.0015
   1426.13403     507.5795     498.2780   1426.13403     507.5795     498.2780
   1426.11877     509.3469     499.5086   1426.11877     509.3469     499.5086
   1426.10352     511.1206     501.1017   1426.10352     511.1206     501.1017
   1426.08826     513.5781     502.2811   1426.08826     513.5781     502.2811
   1426.07300     515.4488     503.1477   1426.07300     515.4488     503.1477
   1426.05774     517.7656     504.5587   1426.05774     517.7656     504.5587
   1426.04248     520.1786     504.7494   1426.04248     520.1786     504.7494
   1426.02722     521.7643     507.0014   1426.02722     521.7643     507.0014
   1426.01196     523.7508     508.3575   1426.01196     523.7508     508.3575
   1425.99670     526.0098     509.1200   1425.99670     526.0098     509.1200
   1425.98145     528.3727     510.3120   1425.98145     528.3727     510.3120
   1425.96619     529.8138     510.4205   1425.96619     529.8138     510.4205
   1425.95093     530.7601     511.8254   1425.95093     530.7601     511.8254
   1425.93567     533.1345     511.3982   1425.93567     533.1345     511.3982
   1425.92041     535.1973     513.2737   1425.92041     535.1973     513.2737
   1425.90515     536.6253     514.3503   1425.90515     536.6253     514.3503
   1425.88989     538.8171     515.1996   1425.88989     538.8171     515.1996
   1425.87463     540.9078     517.1553   1425.87463     540.9078     517.1553
   1425.85938     542.3819     517.0672   1425.85938     542.3819     517.0672
   1425.84412     543.6059     518.4455   1425.84412     543.6059     518.4455
   1425.82886     545.5385     518.7165   1425.82886     545.5385     518.7165
   1425.81360     547.4570     519.1935   1425.81360     547.4570     519.1935
   1425.79834     549.7761     520.2785   1425.79834     549.7761     520.2785
   1425.78308     550.3348     520.1438   1425.78308     550.3348     520.1438
   1425.76782     551.9127     521.0330   1425.76782     551.9127     521.0330
   1425.75256     554.6858     521.6604   1425.75256     554.6858     521.6604
   1425.73730     555.3470     522.5788   1425.73730     555.3470     522.5788
   1425.72205     557.4362     522.9008   1425.72205     557.4362     522.9008
   1425.70679     559.4500     523.7026   1425.70679     559.4500     523.7026
   1425.69153     559.4484     523.3284   1425.69153     559.4484     523.3284
   1425.67627     561.3195     524.0280   1425.67627     561.3195     524.0280
   1425.66101     563.0633     525.4409   1425.66101     563.0633     525.4409
   1425.64575     564.9628     525.8347   1425.64575     564.9628     525.8347
   1425.63049     565.6372     526.1085   1425.63049     565.6372     526.1085
   1425.61523     566.6380     526.5582   1425.61523     566.6380     526.5582
   1425.59998     569.0993     526.9379   1425.59998     569.0993     526.9379
   1425.58472     570.1254     527.7828   1425.58472     570.1254     527.7828
   1425.56946     570.9644     526.8364   1425.56946     570.9644     526.8364
   1425.55420     571.4116     527.8367   1425.55420     571.4116     527.8367
   1425.53894     572.8256     527.9173   1425.53894     572.8256     527.9173
   1425.52368     573.8255     528.6815   1425.52368     573.8255     528.6815
   1425.50842     575.5539     528.1753   1425.50842     575.5539     528.1753
   1425.49316     576.9333     528.8079   1425.49316     576.9333     528.8079
   1425.47791     577.5675     529.1620   1425.47791     577.5675     529.1620
   1425.46265     580.6033     529.9504   1425.46265     580.6033     529.9504
   1425.44739     579.9042     529.7163   1425.44739     579.9042     529.7163
   1425.43213     581.6549     529.3534   1425.43213     581.6549     529.3534
   1425.41687     583.1682     530.5168   1425.41687     583.1682     530.5168
   1425.40161     583.7281     530.0032   1425.40161     583.7281     530.0032
   1425.38635     583.6968     530.7070   1425.38635     583.6968     530.7070
   1425.37109     584.9572     530.5908   1425.37109     584.9572     530.5908
   1425.35583     586.1658     530.4082   1425.35583     586.1658     530.4082
   1425.34058     586.4634     530.8419   1425.34058     586.4634     530.8419
   1425.32532     587.0375     530.9588   1425.32532     587.0375     530.9588
   1425.31006     588.4637     531.3707   1425.31006     588.4637     531.3707
   1425.29480     589.3359     530.6986   1425.29480     589.3359     530.6986
   1425.27954     590.0841     530.9864   1425.27954     590.0841     530.9864
   1425.26428     589.9282     531.3500   1425.26428     589.9282     531.3500
   1425.24902     590.8439     530.8178   1425.24902     590.8439     530.8178
   1425.23376     592.2830     532.0283   1425.23376     592.2830     532.0283
   1425.21851     593.9133     530.8455   1425.21851     593.9133     530.8455
   1425.20325     593.6044     530.7352   1425.20325     593.6044     530.7352
   1425.18799     594.1190     531.0352   1425.18799     594.1190     531.0352
   1425.17273     595.0728     531.5993   1425.17273     595.0728     531.5993
   1425.15747     595.3804     530.8167   1425.15747     595.3804     530.8167
   1425.14221     595.6359     530.6284   1425.14221     595.6359     530.6284
   1425.12695     596.5271     530.9243   1425.12695     596.5271     530.9243
   1425.11169     596.6099     530.7082   1425.11169     596.6099     530.7082
   1425.09644     598.0724     530.0692   1425.09644     598.0724     530.0692
   1425.08118     598.3761     529.3423   1425.08118     598.3761     529.3423
   1425.06592     598.9713     530.1837   1425.06592     598.9713     530.1837
   1425.05066     598.9218     529.4467   1425.05066     598.9218     529.4467
   1425.03540     599.8842     529.3591   1425.03540     599.8842     529.3591
   1425.02014     600.2388     529.3699   1425.02014     600.2388     529.3699
   1425.00488     600.2862     528.9373   1425.00488     600.2862     528.9373
   1424.98962     600.4493     529.2275   1424.98962     600.4493     529.2275
   1424.97437     601.8019     529.4101   1424.97437     601.8019     529.4101
   1424.95911     601.1443     528.4830   1424.95911     601.1443     528.4830
   1424.94385     600.8567     528.2384   1424.94385     600.8567     528.2384
   1424.92859     601.7307     528.2115   1424.92859     601.7307     528.2115
   1424.91333     602.9238     527.7328   1424.91333     602.9238     527.7328
   1424.89807     602.1621     528.1309   1424.89807     602.1621     528.1309
   1424.88281     602.8876     527.2729   1424.88281     602.8876     527.2729
   1424.86755     603.8486     527.2422   1424.86755     603.8486     527.2422
   1424.85229     603.2305     526.4775   1424.85229     603.2305     526.4775
   1424.83704     603.5354     525.5477   1424.83704     603.5354     525.5477
   1424.82178     602.8347     525.8629   1424.82178     602.8347     525.8629
   1424.80652     604.5050     525.2443   1424.80652     604.5050     525.2443
   1424.79126     603.4664     525.6719   1424.79126     603.4664     525.6719
   1424.77600     603.9648     524.9613   1424.77600     603.9648     524.9613
   1424.76074     603.8614     524.9413   1424.76074     603.8614     524.9413
   1424.74548     604.4439     523.8536   1424.74548     604.4439     523.8536
   1424.73022     605.8383     523.6164   1424.73022     605.8383     523.6164
   1424.71497     605.1268     523.1733   1424.71497     605.1268     523.1733
   1424.69971     604.3588     523.0729   1424.69971     604.3588     523.0729
   1424.68445     604.8707     521.8417   1424.68445     604.8707     521.8417
   1424.66919     604.8389     522.7194   1424.66919     604.8389     522.7194
   1424.65393     604.0179     521.7843   1424.65393     604.0179     521.7843
   1424.63867     605.0875     521.6595   1424.63867     605.0875     521.6595
   1424.62341     604.9778     520.5897   1424.62341     604.9778     520.5897
   1424.60815     604.5396     520.0228   1424.60815     604.5396     520.0228
   1424.59290     604.8894     519.6673   1424.59290     604.8894     519.6673
   1424.57764     604.4415     519.8355   1424.57764     604.4415     519.8355
   1424.56238     604.0717     517.9421   1424.56238     604.0717     517.9421
   1424.54712     604.0722     517.8389   1424.54712     604.0722     517.8389
   1424.53186     603.9796     518.7159   1424.53186     603.9796     518.7159
   1424.51660     604.5444     518.2559   1424.51660     604.5444     518.2559
   1424.50134     604.2529     517.5524   1424.50134     604.2529     517.5524
   1424.48608     603.5574     516.1639   1424.48608     603.5574     516.1639
   1424.47083     604.0396     516.4915   1424.47083     604.0396     516.4915
   1424.45557     603.4528     515.5828   1424.45557     603.4528     515.5828
   1424.44031     603.8243     515.8682   1424.44031     603.8243     515.8682
   1424.42505     603.2206     515.2108   1424.42505     603.2206     515.2108
   1424.40979     603.5963     514.5281   1424.40979     603.5963     514.5281
   1424.39453     602.7390     513.6021   1424.39453     602.7390     513.6021
   1424.37927     602.8146     512.8936   1424.37927     602.8146     512.8936
   1424.36401     603.7003     512.2388   1424.36401     603.7003     512.2388
   1424.34875     602.6278     512.5685   1424.34875     602.6278     512.5685
   1424.33350     601.6960     512.1814   1424.33350     601.6960     512.1814
   1424.31824     602.6897     510.6096   1424.31824     602.6897     510.6096
   1424.30298     601.0431     510.1537   1424.30298     601.0431     510.1537
   1424.28772     601.3408     510.4185   1424.28772     601.3408     510.4185
   1424.27246     601.5271     509.7184   1424.27246     601.5271     509.7184
   1424.25720     601.0944     509.4914   1424.25720     601.0944     509.4914
   1424.24194     600.9700     508.5357   1424.24194     600.9700     508.5357
   1424.22668     600.9985     507.8551   1424.22668     600.9985     507.8551
   1424.21143     600.5248     506.3567   1424.21143     600.5248     506.3567
   1424.19617     599.7426     506.0107   1424.19617     599.7426     506.0107
   1424.18091     600.0871     506.3106   1424.18091     600.0871     506.3106
   1424.16565     599.3433     505.6117   1424.16565     599.3433     505.6117
