#     FILENAME=!Skynet_57528_lach-hhg-136_20449_20960.cyb.fits
#     BASENAME=Skynet_57528_lach-hhg-136_20449_20960
#     SRC_NAME=lach-hhg-136
#     OBSERVER=hhgmadison16_9500
#     DATE_OBS=2016-05-20T17:09:31.620
#        OBSID=20449
#      SCANNUM=20960
#          MJD=57528.7160
#          UTC=61861
#     SCANTYPE=track
#     DATAMODE=HIRES
#     TUNEFREQ=1420.0000
# Actual_FREQ1=1420.0000
# Actual_FREQ2=1420.0000
#    LO1Tuning=6870.000
#     RFFILTER=1355_1435
#        OBSBW=-15.6250
#        NCHAN=1024 
#        FOCUS=37.0489
#           RA=02:39:19.20
#          DEC=60:06:14.07
#      RA(hrs)=2.655300
#     DEC(deg)=60.103900
#    AZIM(deg)=339.552
#    ELEV(deg)=65.890
#     IFattens=11.00, 9.00
#      WARNING=None
#    TCAL_XL1=7.9635
#    TCAL_YR1=9.1340
#    TCAL_XL2=7.9635
#    TCAL_YR2=9.1340
#     TRX_XL1=11.7060
#     TRX_YR1=11.7060
#     TRX_XL2=11.7060
#     TRX_YR2=11.7060
#        TAVE=1.0000
#Freq1(MHz)          XL1          YR1  Freq2(MHz)          XL2          YR2 

   1427.81250     386.6639     247.4332   1427.81250     386.6639     247.4332
   1427.79724     386.4468     248.0417   1427.79724     386.4468     248.0417
   1427.78198     387.7219     249.0334   1427.78198     387.7219     249.0334
   1427.76672     388.3368     250.3182   1427.76672     388.3368     250.3182
   1427.75146     389.2168     251.4023   1427.75146     389.2168     251.4023
   1427.73621     390.5633     252.6093   1427.73621     390.5633     252.6093
   1427.72095     390.8152     253.3238   1427.72095     390.8152     253.3238
   1427.70569     391.8926     254.1776   1427.70569     391.8926     254.1776
   1427.69043     392.5210     255.4992   1427.69043     392.5210     255.4992
   1427.67517     394.0570     256.9380   1427.67517     394.0570     256.9380
   1427.65991     395.3808     258.1216   1427.65991     395.3808     258.1216
   1427.64465     396.7350     259.1176   1427.64465     396.7350     259.1176
   1427.62939     397.8897     260.5766   1427.62939     397.8897     260.5766
   1427.61414     399.6375     261.7219   1427.61414     399.6375     261.7219
   1427.59888     400.9032     263.4427   1427.59888     400.9032     263.4427
   1427.58362     402.3228     264.9579   1427.58362     402.3228     264.9579
   1427.56836     403.5849     266.1395   1427.56836     403.5849     266.1395
   1427.55310     405.8856     267.5973   1427.55310     405.8856     267.5973
   1427.53784     407.2061     268.7722   1427.53784     407.2061     268.7722
   1427.52258     408.6526     270.8931   1427.52258     408.6526     270.8931
   1427.50732     410.5070     272.3173   1427.50732     410.5070     272.3173
   1427.49207     412.5370     274.1110   1427.49207     412.5370     274.1110
   1427.47681     413.9935     275.5124   1427.47681     413.9935     275.5124
   1427.46155     416.0544     277.2273   1427.46155     416.0544     277.2273
   1427.44629     417.3792     278.1973   1427.44629     417.3792     278.1973
   1427.43103     419.4981     280.1401   1427.43103     419.4981     280.1401
   1427.41577     421.6701     282.6641   1427.41577     421.6701     282.6641
   1427.40051     424.2321     283.5414   1427.40051     424.2321     283.5414
   1427.38525     425.9927     285.2892   1427.38525     425.9927     285.2892
   1427.37000     427.7037     287.2227   1427.37000     427.7037     287.2227
   1427.35474     430.4724     288.8413   1427.35474     430.4724     288.8413
   1427.33948     432.5658     290.2676   1427.33948     432.5658     290.2676
   1427.32422     434.6038     292.5770   1427.32422     434.6038     292.5770
   1427.30896     436.7224     294.3261   1427.30896     436.7224     294.3261
   1427.29370     438.2960     296.1688   1427.29370     438.2960     296.1688
   1427.27844     441.8058     298.1187   1427.27844     441.8058     298.1187
   1427.26318     444.5862     299.9420   1427.26318     444.5862     299.9420
   1427.24792     446.2160     301.7769   1427.24792     446.2160     301.7769
   1427.23267     449.6877     304.1765   1427.23267     449.6877     304.1765
   1427.21741     451.9870     305.4103   1427.21741     451.9870     305.4103
   1427.20215     454.5699     307.9445   1427.20215     454.5699     307.9445
   1427.18689     457.1549     309.5910   1427.18689     457.1549     309.5910
   1427.17163     459.9247     311.3573   1427.17163     459.9247     311.3573
   1427.15637     462.5093     313.5887   1427.15637     462.5093     313.5887
   1427.14111     465.3834     315.4935   1427.14111     465.3834     315.4935
   1427.12585     467.7458     317.8111   1427.12585     467.7458     317.8111
   1427.11060     470.6500     319.3574   1427.11060     470.6500     319.3574
   1427.09534     473.1464     321.9436   1427.09534     473.1464     321.9436
   1427.08008     476.7898     323.5901   1427.08008     476.7898     323.5901
   1427.06482     478.8754     325.5797   1427.06482     478.8754     325.5797
   1427.04956     482.7743     327.8727   1427.04956     482.7743     327.8727
   1427.03430     484.8705     329.3931   1427.03430     484.8705     329.3931
   1427.01904     488.0032     331.6721   1427.01904     488.0032     331.6721
   1427.00378     491.2223     333.4039   1427.00378     491.2223     333.4039
   1426.98853     493.9638     335.2582   1426.98853     493.9638     335.2582
   1426.97327     498.1340     337.4805   1426.97327     498.1340     337.4805
   1426.95801     499.6937     340.1299   1426.95801     499.6937     340.1299
   1426.94275     503.6441     342.1814   1426.94275     503.6441     342.1814
   1426.92749     506.9138     344.0076   1426.92749     506.9138     344.0076
   1426.91223     509.2390     346.3723   1426.91223     509.2390     346.3723
   1426.89697     512.4149     347.7163   1426.89697     512.4149     347.7163
   1426.88171     515.5799     350.1096   1426.88171     515.5799     350.1096
   1426.86646     519.5062     352.7361   1426.86646     519.5062     352.7361
   1426.85120     522.5943     354.3255   1426.85120     522.5943     354.3255
   1426.83594     525.4336     355.8502   1426.83594     525.4336     355.8502
   1426.82068     529.4396     358.6053   1426.82068     529.4396     358.6053
   1426.80542     532.1138     360.8442   1426.80542     532.1138     360.8442
   1426.79016     536.0371     362.7370   1426.79016     536.0371     362.7370
   1426.77490     538.8309     364.5401   1426.77490     538.8309     364.5401
   1426.75964     542.3630     366.2849   1426.75964     542.3630     366.2849
   1426.74438     545.0167     368.1880   1426.74438     545.0167     368.1880
   1426.72913     548.1729     370.2800   1426.72913     548.1729     370.2800
   1426.71387     552.7438     372.4294   1426.71387     552.7438     372.4294
   1426.69861     555.3573     374.5324   1426.69861     555.3573     374.5324
   1426.68335     558.1824     376.8904   1426.68335     558.1824     376.8904
   1426.66809     561.8868     378.8236   1426.66809     561.8868     378.8236
   1426.65283     565.5712     380.3990   1426.65283     565.5712     380.3990
   1426.63757     568.1442     382.8353   1426.63757     568.1442     382.8353
   1426.62231     571.7418     385.5881   1426.62231     571.7418     385.5881
   1426.60706     575.4219     386.1938   1426.60706     575.4219     386.1938
   1426.59180     578.0044     388.6468   1426.59180     578.0044     388.6468
   1426.57654     581.1627     390.0168   1426.57654     581.1627     390.0168
   1426.56128     584.6949     391.9048   1426.56128     584.6949     391.9048
   1426.54602     589.0612     394.4520   1426.54602     589.0612     394.4520
   1426.53076     591.3463     395.9037   1426.53076     591.3463     395.9037
   1426.51550     594.5538     397.7179   1426.51550     594.5538     397.7179
   1426.50024     597.2537     399.9875   1426.50024     597.2537     399.9875
   1426.48499     602.2856     401.2025   1426.48499     602.2856     401.2025
   1426.46973     605.2952     403.2434   1426.46973     605.2952     403.2434
   1426.45447     608.0588     405.4258   1426.45447     608.0588     405.4258
   1426.43921     611.0563     406.0153   1426.43921     611.0563     406.0153
   1426.42395     614.0503     409.1902   1426.42395     614.0503     409.1902
   1426.40869     617.8494     410.2234   1426.40869     617.8494     410.2234
   1426.39343     619.8386     411.7918   1426.39343     619.8386     411.7918
   1426.37817     623.7251     414.0760   1426.37817     623.7251     414.0760
   1426.36292     627.5399     415.6204   1426.36292     627.5399     415.6204
   1426.34766     630.2433     417.2383   1426.34766     630.2433     417.2383
   1426.33240     633.1298     419.1418   1426.33240     633.1298     419.1418
   1426.31714     635.7965     420.6465   1426.31714     635.7965     420.6465
   1426.30188     638.7326     422.0820   1426.30188     638.7326     422.0820
   1426.28662     642.4362     423.7891   1426.28662     642.4362     423.7891
   1426.27136     645.7685     425.7256   1426.27136     645.7685     425.7256
   1426.25610     648.6227     427.5323   1426.25610     648.6227     427.5323
   1426.24084     651.7044     429.1901   1426.24084     651.7044     429.1901
   1426.22559     654.4250     430.2207   1426.22559     654.4250     430.2207
   1426.21033     657.1452     432.1311   1426.21033     657.1452     432.1311
   1426.19507     661.4442     433.4279   1426.19507     661.4442     433.4279
   1426.17981     664.2194     434.8046   1426.17981     664.2194     434.8046
   1426.16455     666.1975     436.6831   1426.16455     666.1975     436.6831
   1426.14929     668.9542     437.4296   1426.14929     668.9542     437.4296
   1426.13403     671.2813     439.4186   1426.13403     671.2813     439.4186
   1426.11877     674.9750     440.7363   1426.11877     674.9750     440.7363
   1426.10352     677.2928     442.2035   1426.10352     677.2928     442.2035
   1426.08826     679.7972     444.1750   1426.08826     679.7972     444.1750
   1426.07300     684.4091     444.4645   1426.07300     684.4091     444.4645
   1426.05774     685.6835     445.8938   1426.05774     685.6835     445.8938
   1426.04248     688.9156     448.5695   1426.04248     688.9156     448.5695
   1426.02722     690.6679     449.1841   1426.02722     690.6679     449.1841
   1426.01196     694.5421     450.7491   1426.01196     694.5421     450.7491
   1425.99670     696.9363     452.0411   1425.99670     696.9363     452.0411
   1425.98145     698.5468     453.4482   1425.98145     698.5468     453.4482
   1425.96619     701.9855     454.4476   1425.96619     701.9855     454.4476
   1425.95093     704.1234     455.1024   1425.95093     704.1234     455.1024
   1425.93567     705.6351     456.6267   1425.93567     705.6351     456.6267
   1425.92041     709.1103     457.8910   1425.92041     709.1103     457.8910
   1425.90515     711.5208     459.6174   1425.90515     711.5208     459.6174
   1425.88989     713.5103     460.7460   1425.88989     713.5103     460.7460
   1425.87463     716.2546     462.0704   1425.87463     716.2546     462.0704
   1425.85938     718.5964     462.7559   1425.85938     718.5964     462.7559
   1425.84412     720.8539     463.9412   1425.84412     720.8539     463.9412
   1425.82886     722.8522     464.4359   1425.82886     722.8522     464.4359
   1425.81360     725.8655     466.5823   1425.81360     725.8655     466.5823
   1425.79834     729.3820     467.8154   1425.79834     729.3820     467.8154
   1425.78308     729.9482     467.6040   1425.78308     729.9482     467.6040
   1425.76782     731.5538     469.8604   1425.76782     731.5538     469.8604
   1425.75256     733.6605     469.5511   1425.75256     733.6605     469.5511
   1425.73730     735.8632     471.6019   1425.73730     735.8632     471.6019
   1425.72205     738.9404     472.9014   1425.72205     738.9404     472.9014
   1425.70679     740.0789     473.8965   1425.70679     740.0789     473.8965
   1425.69153     741.9096     474.6126   1425.69153     741.9096     474.6126
   1425.67627     744.5836     475.4223   1425.67627     744.5836     475.4223
   1425.66101     746.0734     476.3020   1425.66101     746.0734     476.3020
   1425.64575     746.9210     476.1870   1425.64575     746.9210     476.1870
   1425.63049     749.1057     478.7329   1425.63049     749.1057     478.7329
   1425.61523     751.7205     479.3277   1425.61523     751.7205     479.3277
   1425.59998     754.1191     479.7916   1425.59998     754.1191     479.7916
   1425.58472     755.0896     480.4890   1425.58472     755.0896     480.4890
   1425.56946     755.7762     481.7074   1425.56946     755.7762     481.7074
   1425.55420     758.2534     482.3732   1425.55420     758.2534     482.3732
   1425.53894     759.2548     483.4760   1425.53894     759.2548     483.4760
   1425.52368     761.2781     484.5416   1425.52368     761.2781     484.5416
   1425.50842     762.3649     484.7961   1425.50842     762.3649     484.7961
   1425.49316     764.5578     485.1335   1425.49316     764.5578     485.1335
   1425.47791     766.2694     487.0244   1425.47791     766.2694     487.0244
   1425.46265     766.6890     487.2395   1425.46265     766.6890     487.2395
   1425.44739     767.3201     487.1869   1425.44739     767.3201     487.1869
   1425.43213     770.8406     489.0848   1425.43213     770.8406     489.0848
   1425.41687     770.8757     490.3375   1425.41687     770.8757     490.3375
   1425.40161     772.3634     489.9821   1425.40161     772.3634     489.9821
   1425.38635     775.6843     491.0276   1425.38635     775.6843     491.0276
   1425.37109     774.5110     492.0713   1425.37109     774.5110     492.0713
   1425.35583     776.2009     492.8116   1425.35583     776.2009     492.8116
   1425.34058     777.6802     492.5520   1425.34058     777.6802     492.5520
   1425.32532     778.9810     494.2453   1425.32532     778.9810     494.2453
   1425.31006     780.7333     493.8058   1425.31006     780.7333     493.8058
   1425.29480     780.1048     494.6711   1425.29480     780.1048     494.6711
   1425.27954     781.4365     495.6282   1425.27954     781.4365     495.6282
   1425.26428     781.8942     495.6920   1425.26428     781.8942     495.6920
   1425.24902     785.0376     495.7243   1425.24902     785.0376     495.7243
   1425.23376     784.6122     496.6413   1425.23376     784.6122     496.6413
   1425.21851     786.2347     498.0557   1425.21851     786.2347     498.0557
   1425.20325     786.3476     498.1173   1425.20325     786.3476     498.1173
   1425.18799     787.4299     498.2748   1425.18799     787.4299     498.2748
   1425.17273     786.9088     499.2950   1425.17273     786.9088     499.2950
   1425.15747     787.5646     499.3412   1425.15747     787.5646     499.3412
   1425.14221     789.0165     500.4384   1425.14221     789.0165     500.4384
   1425.12695     790.0260     501.9346   1425.12695     790.0260     501.9346
   1425.11169     790.4288     501.4815   1425.11169     790.4288     501.4815
   1425.09644     792.1596     501.6838   1425.09644     792.1596     501.6838
   1425.08118     792.2896     501.9987   1425.08118     792.2896     501.9987
   1425.06592     794.1841     502.0579   1425.06592     794.1841     502.0579
   1425.05066     794.3042     503.1687   1425.05066     794.3042     503.1687
   1425.03540     794.3023     502.9950   1425.03540     794.3023     502.9950
   1425.02014     795.8562     504.4734   1425.02014     795.8562     504.4734
   1425.00488     794.8384     504.2549   1425.00488     794.8384     504.2549
   1424.98962     796.4151     505.9077   1424.98962     796.4151     505.9077
   1424.97437     796.7707     505.3745   1424.97437     796.7707     505.3745
   1424.95911     797.1579     505.5887   1424.95911     797.1579     505.5887
   1424.94385     795.9542     506.9101   1424.94385     795.9542     506.9101
   1424.92859     797.8093     506.0455   1424.92859     797.8093     506.0455
   1424.91333     797.3696     506.8769   1424.91333     797.3696     506.8769
   1424.89807     797.6566     506.8373   1424.89807     797.6566     506.8373
   1424.88281     798.6718     507.5919   1424.88281     798.6718     507.5919
   1424.86755     799.2087     507.8339   1424.86755     799.2087     507.8339
   1424.85229     798.0915     507.7630   1424.85229     798.0915     507.7630
   1424.83704     799.7854     508.6443   1424.83704     799.7854     508.6443
   1424.82178     798.4584     507.8881   1424.82178     798.4584     507.8881
   1424.80652     798.9157     509.2729   1424.80652     798.9157     509.2729
   1424.79126     799.6203     509.0072   1424.79126     799.6203     509.0072
   1424.77600     799.6744     509.9739   1424.77600     799.6744     509.9739
   1424.76074     799.6862     510.1357   1424.76074     799.6862     510.1357
   1424.74548     799.5011     509.7613   1424.74548     799.5011     509.7613
   1424.73022     799.7582     510.8013   1424.73022     799.7582     510.8013
   1424.71497     799.2194     509.6850   1424.71497     799.2194     509.6850
   1424.69971     800.2534     511.0776   1424.69971     800.2534     511.0776
   1424.68445     798.5763     510.6842   1424.68445     798.5763     510.6842
   1424.66919     800.6096     511.0078   1424.66919     800.6096     511.0078
   1424.65393     800.2048     510.7554   1424.65393     800.2048     510.7554
   1424.63867     799.9650     511.2707   1424.63867     799.9650     511.2707
   1424.62341     799.4489     511.5333   1424.62341     799.4489     511.5333
   1424.60815     799.9853     512.2103   1424.60815     799.9853     512.2103
   1424.59290     799.5120     512.7826   1424.59290     799.5120     512.7826
   1424.57764     798.3782     513.3735   1424.57764     798.3782     513.3735
   1424.56238     800.0928     512.6524   1424.56238     800.0928     512.6524
   1424.54712     799.1345     512.5980   1424.54712     799.1345     512.5980
   1424.53186     798.9637     512.5912   1424.53186     798.9637     512.5912
   1424.51660     798.8764     512.0848   1424.51660     798.8764     512.0848
   1424.50134     798.0814     513.0383   1424.50134     798.0814     513.0383
   1424.48608     797.7994     513.1369   1424.48608     797.7994     513.1369
   1424.47083     798.6301     513.6899   1424.47083     798.6301     513.6899
   1424.45557     797.9229     513.7927   1424.45557     797.9229     513.7927
   1424.44031     796.7557     513.8063   1424.44031     796.7557     513.8063
   1424.42505     797.2559     513.8527   1424.42505     797.2559     513.8527
   1424.40979     795.7981     514.4315   1424.40979     795.7981     514.4315
   1424.39453     796.2271     513.8892   1424.39453     796.2271     513.8892
   1424.37927     797.2844     513.9419   1424.37927     797.2844     513.9419
   1424.36401     796.1949     514.7355   1424.36401     796.1949     514.7355
   1424.34875     795.9070     515.2684   1424.34875     795.9070     515.2684
   1424.33350     794.8621     514.5713   1424.33350     794.8621     514.5713
   1424.31824     794.8101     514.8497   1424.31824     794.8101     514.8497
   1424.30298     794.4106     515.3248   1424.30298     794.4106     515.3248
   1424.28772     794.9677     514.9183   1424.28772     794.9677     514.9183
   1424.27246     795.0771     514.6118   1424.27246     795.0771     514.6118
   1424.25720     795.0540     515.4307   1424.25720     795.0540     515.4307
   1424.24194     793.5505     514.9989   1424.24194     793.5505     514.9989
   1424.22668     793.2335     515.1468   1424.22668     793.2335     515.1468
   1424.21143     793.2054     514.8577   1424.21143     793.2054     514.8577
   1424.19617     791.9499     515.8151   1424.19617     791.9499     515.8151
   1424.18091     789.6824     515.6204   1424.18091     789.6824     515.6204
   1424.16565     791.4853     515.2605   1424.16565     791.4853     515.2605
