#     FILENAME=!Skynet_57528_lach-cc-182_20572_21005.cyb.fits
#     BASENAME=Skynet_57528_lach-cc-182_20572_21005
#     SRC_NAME=lach-cc-182
#     OBSERVER=ccmadison16_9505
#     DATE_OBS=2016-05-20T18:44:12.180
#        OBSID=20572
#      SCANNUM=21005
#          MJD=57528.7817
#          UTC=67541
#     SCANTYPE=track
#     DATAMODE=HIRES
#     TUNEFREQ=1420.0000
# Actual_FREQ1=1420.0000
# Actual_FREQ2=1420.0000
#    LO1Tuning=6870.000
#     RFFILTER=1355_1435
#        OBSBW=-15.6250
#        NCHAN=1024 
#        FOCUS=37.0709
#           RA=05:50:16.42
#          DEC=27:13:26.95
#      RA(hrs)=5.837900
#     DEC(deg)=27.224200
#    AZIM(deg)=147.191
#    ELEV(deg)=76.940
#     IFattens=10.00, 9.00
#      WARNING=None
#    TCAL_XL1=7.9635
#    TCAL_YR1=9.1340
#    TCAL_XL2=7.9635
#    TCAL_YR2=9.1340
#     TRX_XL1=11.7060
#     TRX_YR1=11.7060
#     TRX_XL2=11.7060
#     TRX_YR2=11.7060
#        TAVE=1.0000
#Freq1(MHz)          XL1          YR1  Freq2(MHz)          XL2          YR2 

   1427.81250     376.3273     345.6418   1427.81250     376.3273     345.6418
   1427.79724     377.0349     346.6418   1427.79724     377.0349     346.6418
   1427.78198     377.7278     348.5421   1427.78198     377.7278     348.5421
   1427.76672     378.5345     350.2594   1427.76672     378.5345     350.2594
   1427.75146     379.0942     351.1871   1427.75146     379.0942     351.1871
   1427.73621     380.2881     352.7018   1427.73621     380.2881     352.7018
   1427.72095     381.4556     354.6448   1427.72095     381.4556     354.6448
   1427.70569     381.9633     355.8338   1427.70569     381.9633     355.8338
   1427.69043     383.1837     357.7589   1427.69043     383.1837     357.7589
   1427.67517     383.8136     359.4557   1427.67517     383.8136     359.4557
   1427.65991     385.0326     361.1428   1427.65991     385.0326     361.1428
   1427.64465     386.3011     363.3315   1427.64465     386.3011     363.3315
   1427.62939     387.6650     364.2276   1427.62939     387.6650     364.2276
   1427.61414     389.5656     366.3655   1427.61414     389.5656     366.3655
   1427.59888     390.1524     368.4464   1427.59888     390.1524     368.4464
   1427.58362     391.7747     370.0080   1427.58362     391.7747     370.0080
   1427.56836     393.4858     372.1534   1427.56836     393.4858     372.1534
   1427.55310     394.2939     374.8865   1427.55310     394.2939     374.8865
   1427.53784     395.7423     376.1193   1427.53784     395.7423     376.1193
   1427.52258     397.2014     378.5543   1427.52258     397.2014     378.5543
   1427.50732     398.9221     380.1977   1427.50732     398.9221     380.1977
   1427.49207     400.4741     382.4687   1427.49207     400.4741     382.4687
   1427.47681     401.6075     385.1253   1427.47681     401.6075     385.1253
   1427.46155     403.6686     386.4366   1427.46155     403.6686     386.4366
   1427.44629     405.4740     388.7408   1427.44629     405.4740     388.7408
   1427.43103     408.4649     390.4935   1427.43103     408.4649     390.4935
   1427.41577     409.7328     393.0765   1427.41577     409.7328     393.0765
   1427.40051     411.8136     395.5371   1427.40051     411.8136     395.5371
   1427.38525     413.9638     397.2480   1427.38525     413.9638     397.2480
   1427.37000     415.3359     400.0081   1427.37000     415.3359     400.0081
   1427.35474     417.6166     401.9973   1427.35474     417.6166     401.9973
   1427.33948     419.2845     403.7598   1427.33948     419.2845     403.7598
   1427.32422     421.5564     406.2373   1427.32422     421.5564     406.2373
   1427.30896     423.8410     409.3052   1427.30896     423.8410     409.3052
   1427.29370     426.2625     411.1671   1427.29370     426.2625     411.1671
   1427.27844     428.3886     413.5596   1427.27844     428.3886     413.5596
   1427.26318     430.6151     416.2707   1427.26318     430.6151     416.2707
   1427.24792     433.5385     418.4013   1427.24792     433.5385     418.4013
   1427.23267     434.8814     420.6023   1427.23267     434.8814     420.6023
   1427.21741     437.0751     423.0044   1427.21741     437.0751     423.0044
   1427.20215     439.7639     425.7710   1427.20215     439.7639     425.7710
   1427.18689     442.8557     428.2333   1427.18689     442.8557     428.2333
   1427.17163     445.2147     430.9508   1427.17163     445.2147     430.9508
   1427.15637     447.7479     433.1360   1427.15637     447.7479     433.1360
   1427.14111     450.2150     435.8022   1427.14111     450.2150     435.8022
   1427.12585     452.3193     437.9671   1427.12585     452.3193     437.9671
   1427.11060     454.4251     441.1450   1427.11060     454.4251     441.1450
   1427.09534     457.9983     443.3856   1427.09534     457.9983     443.3856
   1427.08008     460.2461     446.0180   1427.08008     460.2461     446.0180
   1427.06482     462.6616     448.1382   1427.06482     462.6616     448.1382
   1427.04956     466.1886     450.9421   1427.04956     466.1886     450.9421
   1427.03430     468.3588     453.4749   1427.03430     468.3588     453.4749
   1427.01904     471.8413     455.3967   1427.01904     471.8413     455.3967
   1427.00378     474.5414     457.6638   1427.00378     474.5414     457.6638
   1426.98853     477.1136     460.2297   1426.98853     477.1136     460.2297
   1426.97327     480.4631     463.4484   1426.97327     480.4631     463.4484
   1426.95801     482.7205     465.4353   1426.95801     482.7205     465.4353
   1426.94275     484.9544     467.5091   1426.94275     484.9544     467.5091
   1426.92749     488.8709     470.4520   1426.92749     488.8709     470.4520
   1426.91223     491.3429     473.2404   1426.91223     491.3429     473.2404
   1426.89697     494.2446     475.3792   1426.89697     494.2446     475.3792
   1426.88171     497.3613     477.9806   1426.88171     497.3613     477.9806
   1426.86646     500.5408     480.6956   1426.86646     500.5408     480.6956
   1426.85120     503.6470     482.6573   1426.85120     503.6470     482.6573
   1426.83594     506.2306     485.0993   1426.83594     506.2306     485.0993
   1426.82068     509.9814     488.6852   1426.82068     509.9814     488.6852
   1426.80542     513.1353     489.7940   1426.80542     513.1353     489.7940
   1426.79016     516.3870     492.5060   1426.79016     516.3870     492.5060
   1426.77490     519.9830     494.7928   1426.77490     519.9830     494.7928
   1426.75964     521.7936     498.1926   1426.75964     521.7936     498.1926
   1426.74438     524.8782     499.7439   1426.74438     524.8782     499.7439
   1426.72913     528.2017     501.9534   1426.72913     528.2017     501.9534
   1426.71387     531.1454     505.0439   1426.71387     531.1454     505.0439
   1426.69861     533.8456     506.6585   1426.69861     533.8456     506.6585
   1426.68335     538.3850     509.7907   1426.68335     538.3850     509.7907
   1426.66809     541.0455     511.7581   1426.66809     541.0455     511.7581
   1426.65283     544.1231     514.7775   1426.65283     544.1231     514.7775
   1426.63757     546.6763     516.5208   1426.63757     546.6763     516.5208
   1426.62231     549.9534     518.9216   1426.62231     549.9534     518.9216
   1426.60706     553.6163     521.0752   1426.60706     553.6163     521.0752
   1426.59180     556.9711     523.6923   1426.59180     556.9711     523.6923
   1426.57654     559.3121     525.2594   1426.57654     559.3121     525.2594
   1426.56128     562.1541     527.4979   1426.56128     562.1541     527.4979
   1426.54602     566.3569     530.9479   1426.54602     566.3569     530.9479
   1426.53076     568.8479     532.5309   1426.53076     568.8479     532.5309
   1426.51550     572.2345     535.5857   1426.51550     572.2345     535.5857
   1426.50024     575.1279     537.0089   1426.50024     575.1279     537.0089
   1426.48499     577.7637     538.9894   1426.48499     577.7637     538.9894
   1426.46973     581.6033     541.4881   1426.46973     581.6033     541.4881
   1426.45447     584.2546     543.4039   1426.45447     584.2546     543.4039
   1426.43921     586.7128     545.5779   1426.43921     586.7128     545.5779
   1426.42395     590.7291     547.2615   1426.42395     590.7291     547.2615
   1426.40869     592.9819     549.5416   1426.40869     592.9819     549.5416
   1426.39343     596.9225     552.1949   1426.39343     596.9225     552.1949
   1426.37817     599.6406     554.1514   1426.37817     599.6406     554.1514
   1426.36292     602.3679     556.0295   1426.36292     602.3679     556.0295
   1426.34766     605.3933     558.1078   1426.34766     605.3933     558.1078
   1426.33240     608.8903     559.5524   1426.33240     608.8903     559.5524
   1426.31714     611.6256     561.7032   1426.31714     611.6256     561.7032
   1426.30188     613.9813     564.0054   1426.30188     613.9813     564.0054
   1426.28662     617.6183     565.5638   1426.28662     617.6183     565.5638
   1426.27136     619.9841     567.9380   1426.27136     619.9841     567.9380
   1426.25610     623.4405     568.9560   1426.25610     623.4405     568.9560
   1426.24084     624.8780     571.0753   1426.24084     624.8780     571.0753
   1426.22559     630.4316     572.6779   1426.22559     630.4316     572.6779
   1426.21033     632.6880     575.6664   1426.21033     632.6880     575.6664
   1426.19507     634.0648     577.4061   1426.19507     634.0648     577.4061
   1426.17981     637.7893     578.7073   1426.17981     637.7893     578.7073
   1426.16455     640.9147     580.4465   1426.16455     640.9147     580.4465
   1426.14929     643.2966     582.6070   1426.14929     643.2966     582.6070
   1426.13403     645.2648     584.4606   1426.13403     645.2648     584.4606
   1426.11877     647.8290     585.6906   1426.11877     647.8290     585.6906
   1426.10352     651.3630     587.2316   1426.10352     651.3630     587.2316
   1426.08826     653.8547     589.0327   1426.08826     653.8547     589.0327
   1426.07300     656.0313     590.4831   1426.07300     656.0313     590.4831
   1426.05774     658.8695     591.8309   1426.05774     658.8695     591.8309
   1426.04248     661.8347     593.4608   1426.04248     661.8347     593.4608
   1426.02722     664.4883     595.1691   1426.02722     664.4883     595.1691
   1426.01196     667.1393     596.4520   1426.01196     667.1393     596.4520
   1425.99670     670.2275     598.5799   1425.99670     670.2275     598.5799
   1425.98145     673.2938     600.4053   1425.98145     673.2938     600.4053
   1425.96619     674.0873     601.0882   1425.96619     674.0873     601.0882
   1425.95093     677.0165     602.3638   1425.95093     677.0165     602.3638
   1425.93567     680.4095     603.7669   1425.93567     680.4095     603.7669
   1425.92041     681.7770     605.4529   1425.92041     681.7770     605.4529
   1425.90515     684.8799     607.5956   1425.90515     684.8799     607.5956
   1425.88989     687.5257     606.8799   1425.88989     687.5257     606.8799
   1425.87463     689.3443     609.6491   1425.87463     689.3443     609.6491
   1425.85938     691.0459     611.3961   1425.85938     691.0459     611.3961
   1425.84412     693.2112     611.8479   1425.84412     693.2112     611.8479
   1425.82886     696.1117     613.9863   1425.82886     696.1117     613.9863
   1425.81360     698.2403     613.8167   1425.81360     698.2403     613.8167
   1425.79834     699.6712     615.5288   1425.79834     699.6712     615.5288
   1425.78308     701.6500     617.9458   1425.78308     701.6500     617.9458
   1425.76782     703.7711     617.3864   1425.76782     703.7711     617.3864
   1425.75256     706.6154     619.1709   1425.75256     706.6154     619.1709
   1425.73730     708.5029     619.4508   1425.73730     708.5029     619.4508
   1425.72205     710.2578     619.9482   1425.72205     710.2578     619.9482
   1425.70679     712.0690     621.9498   1425.70679     712.0690     621.9498
   1425.69153     714.5170     622.9678   1425.69153     714.5170     622.9678
   1425.67627     716.4904     624.1439   1425.67627     716.4904     624.1439
   1425.66101     719.5360     625.9239   1425.66101     719.5360     625.9239
   1425.64575     719.8328     625.5084   1425.64575     719.8328     625.5084
   1425.63049     721.2037     627.7557   1425.63049     721.2037     627.7557
   1425.61523     722.9193     627.8904   1425.61523     722.9193     627.8904
   1425.59998     724.8621     629.1783   1425.59998     724.8621     629.1783
   1425.58472     726.8453     630.2035   1425.58472     726.8453     630.2035
   1425.56946     729.1255     631.1084   1425.56946     729.1255     631.1084
   1425.55420     730.9921     631.3527   1425.55420     730.9921     631.3527
   1425.53894     731.8389     632.6502   1425.53894     731.8389     632.6502
   1425.52368     733.2820     632.7947   1425.52368     733.2820     632.7947
   1425.50842     734.7878     634.0157   1425.50842     734.7878     634.0157
   1425.49316     735.5808     634.2643   1425.49316     735.5808     634.2643
   1425.47791     736.7113     634.7413   1425.47791     736.7113     634.7413
   1425.46265     738.7288     636.2268   1425.46265     738.7288     636.2268
   1425.44739     740.6769     636.9107   1425.44739     740.6769     636.9107
   1425.43213     741.6959     636.4622   1425.43213     741.6959     636.4622
   1425.41687     742.5498     638.3640   1425.41687     742.5498     638.3640
   1425.40161     743.6492     638.9832   1425.40161     743.6492     638.9832
   1425.38635     745.2136     639.4594   1425.38635     745.2136     639.4594
   1425.37109     747.3427     639.5483   1425.37109     747.3427     639.5483
   1425.35583     748.2184     639.5145   1425.35583     748.2184     639.5145
   1425.34058     748.9957     641.2699   1425.34058     748.9957     641.2699
   1425.32532     750.1464     641.0163   1425.32532     750.1464     641.0163
   1425.31006     750.7755     641.0787   1425.31006     750.7755     641.0787
   1425.29480     752.4424     642.1470   1425.29480     752.4424     642.1470
   1425.27954     751.9796     642.4252   1425.27954     751.9796     642.4252
   1425.26428     754.3129     642.7394   1425.26428     754.3129     642.7394
   1425.24902     755.7232     642.5758   1425.24902     755.7232     642.5758
   1425.23376     756.6768     642.4559   1425.23376     756.6768     642.4559
   1425.21851     757.1075     643.7812   1425.21851     757.1075     643.7812
   1425.20325     758.2502     645.7560   1425.20325     758.2502     645.7560
   1425.18799     759.2842     643.6533   1425.18799     759.2842     643.6533
   1425.17273     760.0524     644.7161   1425.17273     760.0524     644.7161
   1425.15747     760.4698     645.2553   1425.15747     760.4698     645.2553
   1425.14221     760.5510     644.9960   1425.14221     760.5510     644.9960
   1425.12695     760.6475     645.7370   1425.12695     760.6475     645.7370
   1425.11169     761.5654     644.5446   1425.11169     761.5654     644.5446
   1425.09644     763.3859     645.4097   1425.09644     763.3859     645.4097
   1425.08118     763.4667     645.0853   1425.08118     763.4667     645.0853
   1425.06592     764.3871     644.9152   1425.06592     764.3871     644.9152
   1425.05066     765.1664     646.1267   1425.05066     765.1664     646.1267
   1425.03540     765.6273     646.0909   1425.03540     765.6273     646.0909
   1425.02014     766.3150     645.6660   1425.02014     766.3150     645.6660
   1425.00488     767.5323     646.3121   1425.00488     767.5323     646.3121
   1424.98962     768.2426     646.5920   1424.98962     768.2426     646.5920
   1424.97437     767.4263     647.3000   1424.97437     767.4263     647.3000
   1424.95911     767.7205     645.9421   1424.95911     767.7205     645.9421
   1424.94385     768.9070     646.6147   1424.94385     768.9070     646.6147
   1424.92859     767.9945     645.4113   1424.92859     767.9945     645.4113
   1424.91333     768.5297     645.0040   1424.91333     768.5297     645.0040
   1424.89807     769.6690     645.8030   1424.89807     769.6690     645.8030
   1424.88281     769.5983     646.2732   1424.88281     769.5983     646.2732
   1424.86755     770.1439     646.2956   1424.86755     770.1439     646.2956
   1424.85229     769.3508     646.3925   1424.85229     769.3508     646.3925
   1424.83704     770.3616     644.9712   1424.83704     770.3616     644.9712
   1424.82178     770.0080     645.6309   1424.82178     770.0080     645.6309
   1424.80652     769.5133     645.8691   1424.80652     769.5133     645.8691
   1424.79126     770.6844     644.8818   1424.79126     770.6844     644.8818
   1424.77600     770.1179     645.3826   1424.77600     770.1179     645.3826
   1424.76074     771.3624     644.7424   1424.76074     771.3624     644.7424
   1424.74548     772.5977     644.0761   1424.74548     772.5977     644.0761
   1424.73022     770.3190     643.4062   1424.73022     770.3190     643.4062
   1424.71497     771.8079     643.8992   1424.71497     771.8079     643.8992
   1424.69971     771.6725     643.4621   1424.69971     771.6725     643.4621
   1424.68445     771.2157     643.1910   1424.68445     771.2157     643.1910
   1424.66919     770.8889     642.3654   1424.66919     770.8889     642.3654
   1424.65393     771.2087     643.3392   1424.65393     771.2087     643.3392
   1424.63867     770.6427     642.7847   1424.63867     770.6427     642.7847
   1424.62341     770.4702     641.6185   1424.62341     770.4702     641.6185
   1424.60815     771.3999     642.5495   1424.60815     771.3999     642.5495
   1424.59290     771.6026     642.1545   1424.59290     771.6026     642.1545
   1424.57764     771.6243     640.6314   1424.57764     771.6243     640.6314
   1424.56238     769.3257     640.9962   1424.56238     769.3257     640.9962
   1424.54712     771.0040     640.7222   1424.54712     771.0040     640.7222
   1424.53186     770.1976     639.5740   1424.53186     770.1976     639.5740
   1424.51660     769.6034     638.6527   1424.51660     769.6034     638.6527
   1424.50134     770.0623     639.4743   1424.50134     770.0623     639.4743
   1424.48608     769.9945     639.3436   1424.48608     769.9945     639.3436
   1424.47083     770.3766     638.2006   1424.47083     770.3766     638.2006
   1424.45557     769.2888     637.1338   1424.45557     769.2888     637.1338
   1424.44031     769.7582     638.0837   1424.44031     769.7582     638.0837
   1424.42505     768.8656     637.1714   1424.42505     768.8656     637.1714
   1424.40979     768.4251     636.8906   1424.40979     768.4251     636.8906
   1424.39453     766.4963     635.5948   1424.39453     766.4963     635.5948
   1424.37927     766.4828     635.8594   1424.37927     766.4828     635.8594
   1424.36401     768.0867     634.4842   1424.36401     768.0867     634.4842
   1424.34875     767.4944     633.4487   1424.34875     767.4944     633.4487
   1424.33350     767.1114     633.2213   1424.33350     767.1114     633.2213
   1424.31824     767.2089     632.9547   1424.31824     767.2089     632.9547
   1424.30298     767.3481     632.9673   1424.30298     767.3481     632.9673
   1424.28772     766.6588     632.9538   1424.28772     766.6588     632.9538
   1424.27246     764.4548     630.2132   1424.27246     764.4548     630.2132
   1424.25720     764.5019     630.2035   1424.25720     764.5019     630.2035
   1424.24194     764.8301     629.5881   1424.24194     764.8301     629.5881
   1424.22668     765.7975     629.0670   1424.22668     765.7975     629.0670
   1424.21143     763.8812     629.3297   1424.21143     763.8812     629.3297
   1424.19617     762.9628     627.5416   1424.19617     762.9628     627.5416
   1424.18091     764.9257     626.5446   1424.18091     764.9257     626.5446
   1424.16565     763.8766     626.2465   1424.16565     763.8766     626.2465
