#     FILENAME=!Skynet_57528_lach-hhg-138_20456_20962.cyb.fits
#     BASENAME=Skynet_57528_lach-hhg-138_20456_20962
#     SRC_NAME=lach-hhg-138
#     OBSERVER=hhgmadison16_9500
#     DATE_OBS=2016-05-20T17:13:30.750
#        OBSID=20456
#      SCANNUM=20962
#          MJD=57528.7188
#          UTC=62099
#     SCANTYPE=track
#     DATAMODE=HIRES
#     TUNEFREQ=1420.0000
# Actual_FREQ1=1420.0000
# Actual_FREQ2=1420.0000
#    LO1Tuning=6870.000
#     RFFILTER=1355_1435
#        OBSBW=-15.6250
#        NCHAN=1024 
#        FOCUS=37.0709
#           RA=02:53:39.59
#          DEC=59:14:50.32
#      RA(hrs)=2.894300
#     DEC(deg)=59.247300
#    AZIM(deg)=341.290
#    ELEV(deg)=67.296
#     IFattens=11.00, 9.00
#      WARNING=None
#    TCAL_XL1=7.9635
#    TCAL_YR1=9.1340
#    TCAL_XL2=7.9635
#    TCAL_YR2=9.1340
#     TRX_XL1=11.7060
#     TRX_YR1=11.7060
#     TRX_XL2=11.7060
#     TRX_YR2=11.7060
#        TAVE=1.0000
#Freq1(MHz)          XL1          YR1  Freq2(MHz)          XL2          YR2 

   1427.81250     384.8859     247.0346   1427.81250     384.8859     247.0346
   1427.79724     384.8691     248.1595   1427.79724     384.8691     248.1595
   1427.78198     385.7105     248.8254   1427.78198     385.7105     248.8254
   1427.76672     386.7773     249.8834   1427.76672     386.7773     249.8834
   1427.75146     387.2305     251.0563   1427.75146     387.2305     251.0563
   1427.73621     388.1950     251.8595   1427.73621     388.1950     251.8595
   1427.72095     390.3248     253.2641   1427.72095     390.3248     253.2641
   1427.70569     390.8360     254.2566   1427.70569     390.8360     254.2566
   1427.69043     391.5777     255.5001   1427.69043     391.5777     255.5001
   1427.67517     392.7750     256.5444   1427.67517     392.7750     256.5444
   1427.65991     394.5086     257.7801   1427.65991     394.5086     257.7801
   1427.64465     395.2245     258.9255   1427.64465     395.2245     258.9255
   1427.62939     396.1395     260.2018   1427.62939     396.1395     260.2018
   1427.61414     397.4026     262.2381   1427.61414     397.4026     262.2381
   1427.59888     398.5327     262.9512   1427.59888     398.5327     262.9512
   1427.58362     400.7450     264.6349   1427.58362     400.7450     264.6349
   1427.56836     402.0406     265.6805   1427.56836     402.0406     265.6805
   1427.55310     403.2653     267.7266   1427.55310     403.2653     267.7266
   1427.53784     405.6820     268.6692   1427.53784     405.6820     268.6692
   1427.52258     407.7659     270.1525   1427.52258     407.7659     270.1525
   1427.50732     407.4734     272.0430   1427.50732     407.4734     272.0430
   1427.49207     409.7082     273.2756   1427.49207     409.7082     273.2756
   1427.47681     412.2701     274.6801   1427.47681     412.2701     274.6801
   1427.46155     414.0936     276.8147   1427.46155     414.0936     276.8147
   1427.44629     416.4625     278.2119   1427.44629     416.4625     278.2119
   1427.43103     417.6117     279.9128   1427.43103     417.6117     279.9128
   1427.41577     419.3721     281.5304   1427.41577     419.3721     281.5304
   1427.40051     422.3637     283.2798   1427.40051     422.3637     283.2798
   1427.38525     424.2994     285.3333   1427.38525     424.2994     285.3333
   1427.37000     426.1107     286.8882   1427.37000     426.1107     286.8882
   1427.35474     427.5832     288.7013   1427.35474     427.5832     288.7013
   1427.33948     430.1164     290.0648   1427.33948     430.1164     290.0648
   1427.32422     432.7268     292.5439   1427.32422     432.7268     292.5439
   1427.30896     435.3409     294.5015   1427.30896     435.3409     294.5015
   1427.29370     436.9257     296.1487   1427.29370     436.9257     296.1487
   1427.27844     439.3503     297.9884   1427.27844     439.3503     297.9884
   1427.26318     441.7734     300.1684   1427.26318     441.7734     300.1684
   1427.24792     443.9360     301.9161   1427.24792     443.9360     301.9161
   1427.23267     447.0278     303.9128   1427.23267     447.0278     303.9128
   1427.21741     449.4984     305.6286   1427.21741     449.4984     305.6286
   1427.20215     452.8034     307.6571   1427.20215     452.8034     307.6571
   1427.18689     455.0831     309.3493   1427.18689     455.0831     309.3493
   1427.17163     458.0048     311.9432   1427.17163     458.0048     311.9432
   1427.15637     461.1812     313.8716   1427.15637     461.1812     313.8716
   1427.14111     463.5559     315.9691   1427.14111     463.5559     315.9691
   1427.12585     465.3488     317.6862   1427.12585     465.3488     317.6862
   1427.11060     468.8418     319.8744   1427.11060     468.8418     319.8744
   1427.09534     470.9491     322.1439   1427.09534     470.9491     322.1439
   1427.08008     474.5932     323.8014   1427.08008     474.5932     323.8014
   1427.06482     476.8088     325.7934   1427.06482     476.8088     325.7934
   1427.04956     479.5347     327.8838   1427.04956     479.5347     327.8838
   1427.03430     483.2019     330.4479   1427.03430     483.2019     330.4479
   1427.01904     485.3911     331.8257   1427.01904     485.3911     331.8257
   1427.00378     488.0876     334.3525   1427.00378     488.0876     334.3525
   1426.98853     491.5497     335.5435   1426.98853     491.5497     335.5435
   1426.97327     495.1427     338.6740   1426.97327     495.1427     338.6740
   1426.95801     497.7697     340.4379   1426.95801     497.7697     340.4379
   1426.94275     500.4758     342.4716   1426.94275     500.4758     342.4716
   1426.92749     504.3205     345.2607   1426.92749     504.3205     345.2607
   1426.91223     507.4488     347.2501   1426.91223     507.4488     347.2501
   1426.89697     510.1100     349.2910   1426.89697     510.1100     349.2910
   1426.88171     512.3092     350.7570   1426.88171     512.3092     350.7570
   1426.86646     517.4442     353.4367   1426.86646     517.4442     353.4367
   1426.85120     519.5201     355.4147   1426.85120     519.5201     355.4147
   1426.83594     522.8837     357.6558   1426.83594     522.8837     357.6558
   1426.82068     526.1856     359.8874   1426.82068     526.1856     359.8874
   1426.80542     529.3662     361.7646   1426.80542     529.3662     361.7646
   1426.79016     532.2025     363.6902   1426.79016     532.2025     363.6902
   1426.77490     536.0483     366.1898   1426.77490     536.0483     366.1898
   1426.75964     538.9756     368.0181   1426.75964     538.9756     368.0181
   1426.74438     542.1003     370.2517   1426.74438     542.1003     370.2517
   1426.72913     545.6315     372.4661   1426.72913     545.6315     372.4661
   1426.71387     548.6685     373.9836   1426.71387     548.6685     373.9836
   1426.69861     551.7874     376.1186   1426.69861     551.7874     376.1186
   1426.68335     555.2948     377.9338   1426.68335     555.2948     377.9338
   1426.66809     558.7828     380.4627   1426.66809     558.7828     380.4627
   1426.65283     561.3153     381.9187   1426.65283     561.3153     381.9187
   1426.63757     564.8171     383.9991   1426.63757     564.8171     383.9991
   1426.62231     567.8607     386.8580   1426.62231     567.8607     386.8580
   1426.60706     570.9305     388.4470   1426.60706     570.9305     388.4470
   1426.59180     575.0659     390.0837   1426.59180     575.0659     390.0837
   1426.57654     577.0149     391.4579   1426.57654     577.0149     391.4579
   1426.56128     581.0857     394.4173   1426.56128     581.0857     394.4173
   1426.54602     584.0726     396.2793   1426.54602     584.0726     396.2793
   1426.53076     588.4749     398.3629   1426.53076     588.4749     398.3629
   1426.51550     591.0705     400.0111   1426.51550     591.0705     400.0111
   1426.50024     593.8378     401.7257   1426.50024     593.8378     401.7257
   1426.48499     597.7972     403.3947   1426.48499     597.7972     403.3947
   1426.46973     601.0612     406.1499   1426.46973     601.0612     406.1499
   1426.45447     603.6745     407.6143   1426.45447     603.6745     407.6143
   1426.43921     606.7670     408.8938   1426.43921     606.7670     408.8938
   1426.42395     610.3630     411.3696   1426.42395     610.3630     411.3696
   1426.40869     613.9795     412.8666   1426.40869     613.9795     412.8666
   1426.39343     617.1534     414.6284   1426.39343     617.1534     414.6284
   1426.37817     619.6229     416.1175   1426.37817     619.6229     416.1175
   1426.36292     622.7350     417.8109   1426.36292     622.7350     417.8109
   1426.34766     625.8235     420.1709   1426.34766     625.8235     420.1709
   1426.33240     628.5342     420.8344   1426.33240     628.5342     420.8344
   1426.31714     632.4807     423.9369   1426.31714     632.4807     423.9369
   1426.30188     635.3434     424.5717   1426.30188     635.3434     424.5717
   1426.28662     638.4235     426.9057   1426.28662     638.4235     426.9057
   1426.27136     641.2990     428.5034   1426.27136     641.2990     428.5034
   1426.25610     645.2415     430.1547   1426.25610     645.2415     430.1547
   1426.24084     647.5499     431.7054   1426.24084     647.5499     431.7054
   1426.22559     651.2390     433.6338   1426.22559     651.2390     433.6338
   1426.21033     654.2555     434.9911   1426.21033     654.2555     434.9911
   1426.19507     656.0853     436.2873   1426.19507     656.0853     436.2873
   1426.17981     659.2401     437.3374   1426.17981     659.2401     437.3374
   1426.16455     662.6939     439.3374   1426.16455     662.6939     439.3374
   1426.14929     664.2676     440.5186   1426.14929     664.2676     440.5186
   1426.13403     667.9173     442.3190   1426.13403     667.9173     442.3190
   1426.11877     669.9828     443.6539   1426.11877     669.9828     443.6539
   1426.10352     672.5543     444.5153   1426.10352     672.5543     444.5153
   1426.08826     676.8966     446.5502   1426.08826     676.8966     446.5502
   1426.07300     678.7175     447.8856   1426.07300     678.7175     447.8856
   1426.05774     680.9521     448.9283   1426.05774     680.9521     448.9283
   1426.04248     683.4377     451.1995   1426.04248     683.4377     451.1995
   1426.02722     687.7916     451.5108   1426.02722     687.7916     451.5108
   1426.01196     689.0807     453.6708   1426.01196     689.0807     453.6708
   1425.99670     692.7200     455.0260   1425.99670     692.7200     455.0260
   1425.98145     694.2764     455.9119   1425.98145     694.2764     455.9119
   1425.96619     695.9902     457.5648   1425.96619     695.9902     457.5648
   1425.95093     700.4514     458.3391   1425.95093     700.4514     458.3391
   1425.93567     702.0521     460.0355   1425.93567     702.0521     460.0355
   1425.92041     704.2868     460.7323   1425.92041     704.2868     460.7323
   1425.90515     707.2914     462.9729   1425.90515     707.2914     462.9729
   1425.88989     709.9720     462.8150   1425.88989     709.9720     462.8150
   1425.87463     711.4547     464.6034   1425.87463     711.4547     464.6034
   1425.85938     712.7667     465.4928   1425.85938     712.7667     465.4928
   1425.84412     715.7600     466.6050   1425.84412     715.7600     466.6050
   1425.82886     718.7316     467.6213   1425.82886     718.7316     467.6213
   1425.81360     721.4266     468.9055   1425.81360     721.4266     468.9055
   1425.79834     722.7196     470.0231   1425.79834     722.7196     470.0231
   1425.78308     726.1412     470.5978   1425.78308     726.1412     470.5978
   1425.76782     727.0972     471.2868   1425.76782     727.0972     471.2868
   1425.75256     728.6271     473.4684   1425.75256     728.6271     473.4684
   1425.73730     732.0549     473.4525   1425.73730     732.0549     473.4525
   1425.72205     733.6074     474.9155   1425.72205     733.6074     474.9155
   1425.70679     735.6536     475.4671   1425.70679     735.6536     475.4671
   1425.69153     736.8599     475.8497   1425.69153     736.8599     475.8497
   1425.67627     739.5353     477.6332   1425.67627     739.5353     477.6332
   1425.66101     740.0817     478.8504   1425.66101     740.0817     478.8504
   1425.64575     742.5186     480.1960   1425.64575     742.5186     480.1960
   1425.63049     743.8978     480.3842   1425.63049     743.8978     480.3842
   1425.61523     745.7230     480.8506   1425.61523     745.7230     480.8506
   1425.59998     748.2659     481.9219   1425.59998     748.2659     481.9219
   1425.58472     748.9099     482.4155   1425.58472     748.9099     482.4155
   1425.56946     751.1196     483.1524   1425.56946     751.1196     483.1524
   1425.55420     753.8829     483.7830   1425.55420     753.8829     483.7830
   1425.53894     753.9464     485.6337   1425.53894     753.9464     485.6337
   1425.52368     756.7091     485.5097   1425.52368     756.7091     485.5097
   1425.50842     757.4624     486.4124   1425.50842     757.4624     486.4124
   1425.49316     758.8186     486.3287   1425.49316     758.8186     486.3287
   1425.47791     760.6968     488.0152   1425.47791     760.6968     488.0152
   1425.46265     761.5932     487.8348   1425.46265     761.5932     487.8348
   1425.44739     764.3557     489.1837   1425.44739     764.3557     489.1837
   1425.43213     765.1602     490.3850   1425.43213     765.1602     490.3850
   1425.41687     766.7488     490.2086   1425.41687     766.7488     490.2086
   1425.40161     767.1657     491.2103   1425.40161     767.1657     491.2103
   1425.38635     768.8315     492.2424   1425.38635     768.8315     492.2424
   1425.37109     768.1824     492.1285   1425.37109     768.1824     492.1285
   1425.35583     770.2247     492.5838   1425.35583     770.2247     492.5838
   1425.34058     772.1119     492.9695   1425.34058     772.1119     492.9695
   1425.32532     773.6387     493.9035   1425.32532     773.6387     493.9035
   1425.31006     773.7363     494.4882   1425.31006     773.7363     494.4882
   1425.29480     774.5446     495.1653   1425.29480     774.5446     495.1653
   1425.27954     776.6303     495.2023   1425.27954     776.6303     495.2023
   1425.26428     777.1152     496.1671   1425.26428     777.1152     496.1671
   1425.24902     777.9030     496.3171   1425.24902     777.9030     496.3171
   1425.23376     778.6713     496.6826   1425.23376     778.6713     496.6826
   1425.21851     779.3516     497.7687   1425.21851     779.3516     497.7687
   1425.20325     780.2987     498.9024   1425.20325     780.2987     498.9024
   1425.18799     781.8384     498.2260   1425.18799     781.8384     498.2260
   1425.17273     782.5625     499.1469   1425.17273     782.5625     499.1469
   1425.15747     783.1918     498.9887   1425.15747     783.1918     498.9887
   1425.14221     783.6618     498.9434   1425.14221     783.6618     498.9434
   1425.12695     784.0007     499.8934   1425.12695     784.0007     499.8934
   1425.11169     785.2307     499.9532   1425.11169     785.2307     499.9532
   1425.09644     785.1307     500.7807   1425.09644     785.1307     500.7807
   1425.08118     785.8055     500.9636   1425.08118     785.8055     500.9636
   1425.06592     786.0971     501.5628   1425.06592     786.0971     501.5628
   1425.05066     788.7445     501.9807   1425.05066     788.7445     501.9807
   1425.03540     787.7906     502.1875   1425.03540     787.7906     502.1875
   1425.02014     789.7270     502.5102   1425.02014     789.7270     502.5102
   1425.00488     788.9858     502.8580   1425.00488     788.9858     502.8580
   1424.98962     789.6357     502.8646   1424.98962     789.6357     502.8646
   1424.97437     790.5839     503.1870   1424.97437     790.5839     503.1870
   1424.95911     789.1458     503.3286   1424.95911     789.1458     503.3286
   1424.94385     790.7580     504.4501   1424.94385     790.7580     504.4501
   1424.92859     791.4642     504.9131   1424.92859     791.4642     504.9131
   1424.91333     790.9350     504.0673   1424.91333     790.9350     504.0673
   1424.89807     789.9807     505.5784   1424.89807     789.9807     505.5784
   1424.88281     792.0554     504.7465   1424.88281     792.0554     504.7465
   1424.86755     789.9848     505.5436   1424.86755     789.9848     505.5436
   1424.85229     791.6329     506.0889   1424.85229     791.6329     506.0889
   1424.83704     792.8445     505.7112   1424.83704     792.8445     505.7112
   1424.82178     792.4266     505.8178   1424.82178     792.4266     505.8178
   1424.80652     792.3109     506.2378   1424.80652     792.3109     506.2378
   1424.79126     792.9054     507.5418   1424.79126     792.9054     507.5418
   1424.77600     793.2872     506.1274   1424.77600     793.2872     506.1274
   1424.76074     792.3653     506.6518   1424.76074     792.3653     506.6518
   1424.74548     792.8471     507.2925   1424.74548     792.8471     507.2925
   1424.73022     792.4040     506.8976   1424.73022     792.4040     506.8976
   1424.71497     793.8402     506.8535   1424.71497     793.8402     506.8535
   1424.69971     792.9860     507.3554   1424.69971     792.9860     507.3554
   1424.68445     792.3871     507.2172   1424.68445     792.3871     507.2172
   1424.66919     793.0699     508.4912   1424.66919     793.0699     508.4912
   1424.65393     793.1807     508.1863   1424.65393     793.1807     508.1863
   1424.63867     792.2360     507.4969   1424.63867     792.2360     507.4969
   1424.62341     793.0513     508.1221   1424.62341     793.0513     508.1221
   1424.60815     793.0015     508.5786   1424.60815     793.0015     508.5786
   1424.59290     792.9110     508.4648   1424.59290     792.9110     508.4648
   1424.57764     793.2158     508.6724   1424.57764     793.2158     508.6724
   1424.56238     791.6038     508.3991   1424.56238     791.6038     508.3991
   1424.54712     791.8557     508.3305   1424.54712     791.8557     508.3305
   1424.53186     791.3458     508.9564   1424.53186     791.3458     508.9564
   1424.51660     791.1170     509.2286   1424.51660     791.1170     509.2286
   1424.50134     791.0053     507.9864   1424.50134     791.0053     507.9864
   1424.48608     791.4926     508.2827   1424.48608     791.4926     508.2827
   1424.47083     791.1761     509.1216   1424.47083     791.1761     509.1216
   1424.45557     790.3911     509.6078   1424.45557     790.3911     509.6078
   1424.44031     790.0932     508.8238   1424.44031     790.0932     508.8238
   1424.42505     790.2200     509.1553   1424.42505     790.2200     509.1553
   1424.40979     790.9969     508.6922   1424.40979     790.9969     508.6922
   1424.39453     789.7192     509.2568   1424.39453     789.7192     509.2568
   1424.37927     789.7767     509.1014   1424.37927     789.7767     509.1014
   1424.36401     788.7385     508.7146   1424.36401     788.7385     508.7146
   1424.34875     788.8162     509.0934   1424.34875     788.8162     509.0934
   1424.33350     789.1636     509.3405   1424.33350     789.1636     509.3405
   1424.31824     788.1329     510.2581   1424.31824     788.1329     510.2581
   1424.30298     787.9128     509.5054   1424.30298     787.9128     509.5054
   1424.28772     785.6367     509.6700   1424.28772     785.6367     509.6700
   1424.27246     787.0257     509.5017   1424.27246     787.0257     509.5017
   1424.25720     787.2958     508.9779   1424.25720     787.2958     508.9779
   1424.24194     785.6010     509.0929   1424.24194     785.6010     509.0929
   1424.22668     784.2095     509.3850   1424.22668     784.2095     509.3850
   1424.21143     784.6272     509.8913   1424.21143     784.6272     509.8913
   1424.19617     784.3530     509.0103   1424.19617     784.3530     509.0103
   1424.18091     785.4217     508.9152   1424.18091     785.4217     508.9152
   1424.16565     783.1826     509.3892   1424.16565     783.1826     509.3892
