#     FILENAME=!Skynet_57528_lach-hhg-102_20351_20909.cyb.fits
#     BASENAME=Skynet_57528_lach-hhg-102_20351_20909
#     SRC_NAME=lach-hhg-102
#     OBSERVER=hhgmadison16_9500
#     DATE_OBS=2016-05-20T15:27:31.250
#        OBSID=20351
#      SCANNUM=20909
#          MJD=57528.6452
#          UTC=55740
#     SCANTYPE=track
#     DATAMODE=HIRES
#     TUNEFREQ=1420.0000
# Actual_FREQ1=1420.0000
# Actual_FREQ2=1420.0000
#    LO1Tuning=6870.000
#     RFFILTER=1355_1435
#        OBSBW=-15.6250
#        NCHAN=1024 
#        FOCUS=37.0709
#           RA=22:11:33.79
#          DEC=56:13:39.58
#      RA(hrs)=22.190600
#     DEC(deg)=56.227800
#    AZIM(deg)=314.376
#    ELEV(deg)=48.406
#     IFattens=10.00, 9.00
#      WARNING=None
#    TCAL_XL1=7.9635
#    TCAL_YR1=9.1340
#    TCAL_XL2=7.9635
#    TCAL_YR2=9.1340
#     TRX_XL1=11.7060
#     TRX_YR1=11.7060
#     TRX_XL2=11.7060
#     TRX_YR2=11.7060
#        TAVE=1.0000
#Freq1(MHz)          XL1          YR1  Freq2(MHz)          XL2          YR2 

   1427.81250     372.6413     283.5817   1427.81250     372.6413     283.5817
   1427.79724     372.4351     284.9508   1427.79724     372.4351     284.9508
   1427.78198     373.7486     285.3884   1427.78198     373.7486     285.3884
   1427.76672     374.4517     286.7129   1427.76672     374.4517     286.7129
   1427.75146     375.5829     287.2007   1427.75146     375.5829     287.2007
   1427.73621     376.0253     288.0420   1427.73621     376.0253     288.0420
   1427.72095     377.1197     289.4943   1427.72095     377.1197     289.4943
   1427.70569     378.0895     290.2914   1427.70569     378.0895     290.2914
   1427.69043     379.3916     290.4848   1427.69043     379.3916     290.4848
   1427.67517     379.8564     291.8223   1427.67517     379.8564     291.8223
   1427.65991     382.0381     292.8623   1427.65991     382.0381     292.8623
   1427.64465     382.7156     293.7705   1427.64465     382.7156     293.7705
   1427.62939     383.6737     294.9709   1427.62939     383.6737     294.9709
   1427.61414     385.9254     296.4396   1427.61414     385.9254     296.4396
   1427.59888     386.2587     297.9634   1427.59888     386.2587     297.9634
   1427.58362     387.9488     298.6566   1427.58362     387.9488     298.6566
   1427.56836     390.2914     299.8813   1427.56836     390.2914     299.8813
   1427.55310     392.0355     301.2353   1427.55310     392.0355     301.2353
   1427.53784     392.6652     302.8606   1427.53784     392.6652     302.8606
   1427.52258     394.7827     304.4019   1427.52258     394.7827     304.4019
   1427.50732     396.3423     305.4739   1427.50732     396.3423     305.4739
   1427.49207     398.5536     307.0081   1427.49207     398.5536     307.0081
   1427.47681     399.3390     308.0429   1427.47681     399.3390     308.0429
   1427.46155     401.7598     309.4416   1427.46155     401.7598     309.4416
   1427.44629     404.3678     311.3415   1427.44629     404.3678     311.3415
   1427.43103     405.5312     313.3980   1427.43103     405.5312     313.3980
   1427.41577     407.8481     313.8726   1427.41577     407.8481     313.8726
   1427.40051     409.3976     316.1100   1427.40051     409.3976     316.1100
   1427.38525     411.4575     317.7964   1427.38525     411.4575     317.7964
   1427.37000     413.7474     319.6635   1427.37000     413.7474     319.6635
   1427.35474     415.6730     320.7604   1427.35474     415.6730     320.7604
   1427.33948     418.5355     323.2385   1427.33948     418.5355     323.2385
   1427.32422     420.3714     325.1390   1427.32422     420.3714     325.1390
   1427.30896     422.5493     326.0341   1427.30896     422.5493     326.0341
   1427.29370     425.0579     328.1864   1427.29370     425.0579     328.1864
   1427.27844     426.9812     329.9356   1427.27844     426.9812     329.9356
   1427.26318     429.0001     331.8416   1427.26318     429.0001     331.8416
   1427.24792     432.7333     333.7703   1427.24792     432.7333     333.7703
   1427.23267     434.9425     335.4533   1427.23267     434.9425     335.4533
   1427.21741     436.9065     338.0193   1427.21741     436.9065     338.0193
   1427.20215     440.3103     339.4801   1427.20215     440.3103     339.4801
   1427.18689     442.4394     341.7955   1427.18689     442.4394     341.7955
   1427.17163     445.0773     343.7493   1427.17163     445.0773     343.7493
   1427.15637     447.9591     345.9149   1427.15637     447.9591     345.9149
   1427.14111     450.3630     347.5995   1427.14111     450.3630     347.5995
   1427.12585     452.8131     349.3210   1427.12585     452.8131     349.3210
   1427.11060     455.1343     351.4983   1427.11060     455.1343     351.4983
   1427.09534     458.8162     353.1446   1427.09534     458.8162     353.1446
   1427.08008     461.2954     355.9635   1427.08008     461.2954     355.9635
   1427.06482     463.4530     357.6058   1427.06482     463.4530     357.6058
   1427.04956     465.7681     359.5242   1427.04956     465.7681     359.5242
   1427.03430     469.2042     361.6942   1427.03430     469.2042     361.6942
   1427.01904     472.2679     364.1917   1427.01904     472.2679     364.1917
   1427.00378     475.4573     365.7552   1427.00378     475.4573     365.7552
   1426.98853     477.5255     368.2483   1426.98853     477.5255     368.2483
   1426.97327     481.0787     370.2812   1426.97327     481.0787     370.2812
   1426.95801     483.3698     371.6437   1426.95801     483.3698     371.6437
   1426.94275     486.4083     375.2387   1426.94275     486.4083     375.2387
   1426.92749     489.7556     376.3135   1426.92749     489.7556     376.3135
   1426.91223     492.3416     378.2871   1426.91223     492.3416     378.2871
   1426.89697     495.6029     381.3493   1426.89697     495.6029     381.3493
   1426.88171     498.9543     382.6860   1426.88171     498.9543     382.6860
   1426.86646     501.6745     385.5247   1426.86646     501.6745     385.5247
   1426.85120     503.8121     387.3831   1426.85120     503.8121     387.3831
   1426.83594     508.0395     390.1713   1426.83594     508.0395     390.1713
   1426.82068     511.0442     392.5086   1426.82068     511.0442     392.5086
   1426.80542     513.5765     394.3406   1426.80542     513.5765     394.3406
   1426.79016     516.6998     396.4808   1426.79016     516.6998     396.4808
   1426.77490     519.6019     399.5094   1426.77490     519.6019     399.5094
   1426.75964     522.0145     401.6487   1426.75964     522.0145     401.6487
   1426.74438     525.6333     403.5221   1426.74438     525.6333     403.5221
   1426.72913     529.0287     405.0881   1426.72913     529.0287     405.0881
   1426.71387     532.2376     407.5774   1426.71387     532.2376     407.5774
   1426.69861     535.3452     409.8239   1426.69861     535.3452     409.8239
   1426.68335     538.0221     411.7119   1426.68335     538.0221     411.7119
   1426.66809     541.7379     414.3482   1426.66809     541.7379     414.3482
   1426.65283     544.4069     416.8969   1426.65283     544.4069     416.8969
   1426.63757     547.7761     418.2166   1426.63757     547.7761     418.2166
   1426.62231     550.5942     421.5782   1426.62231     550.5942     421.5782
   1426.60706     553.6175     423.0025   1426.60706     553.6175     423.0025
   1426.59180     556.5261     425.0666   1426.59180     556.5261     425.0666
   1426.57654     559.3019     427.5847   1426.57654     559.3019     427.5847
   1426.56128     562.7656     430.5172   1426.56128     562.7656     430.5172
   1426.54602     565.3395     431.9471   1426.54602     565.3395     431.9471
   1426.53076     568.8079     434.3812   1426.53076     568.8079     434.3812
   1426.51550     571.3438     436.7512   1426.51550     571.3438     436.7512
   1426.50024     574.7922     438.7521   1426.50024     574.7922     438.7521
   1426.48499     577.0816     440.2418   1426.48499     577.0816     440.2418
   1426.46973     580.9344     442.7511   1426.46973     580.9344     442.7511
   1426.45447     583.9032     444.8032   1426.45447     583.9032     444.8032
   1426.43921     587.6766     447.5073   1426.43921     587.6766     447.5073
   1426.42395     589.8691     449.3775   1426.42395     589.8691     449.3775
   1426.40869     592.2092     451.7790   1426.40869     592.2092     451.7790
   1426.39343     595.0973     452.7575   1426.39343     595.0973     452.7575
   1426.37817     598.2549     456.3330   1426.37817     598.2549     456.3330
   1426.36292     601.5452     457.5307   1426.36292     601.5452     457.5307
   1426.34766     604.9576     459.8810   1426.34766     604.9576     459.8810
   1426.33240     607.2520     462.5688   1426.33240     607.2520     462.5688
   1426.31714     609.7562     463.5950   1426.31714     609.7562     463.5950
   1426.30188     612.3220     465.8606   1426.30188     612.3220     465.8606
   1426.28662     614.8856     468.2005   1426.28662     614.8856     468.2005
   1426.27136     618.4484     470.1659   1426.27136     618.4484     470.1659
   1426.25610     621.5939     472.3776   1426.25610     621.5939     472.3776
   1426.24084     622.8729     474.3580   1426.24084     622.8729     474.3580
   1426.22559     625.6857     475.4840   1426.22559     625.6857     475.4840
   1426.21033     628.3567     477.7215   1426.21033     628.3567     477.7215
   1426.19507     630.6156     480.1862   1426.19507     630.6156     480.1862
   1426.17981     633.3772     482.0001   1426.17981     633.3772     482.0001
   1426.16455     636.9379     483.7693   1426.16455     636.9379     483.7693
   1426.14929     640.1199     485.6739   1426.14929     640.1199     485.6739
   1426.13403     641.4897     487.3227   1426.13403     641.4897     487.3227
   1426.11877     642.9365     489.4731   1426.11877     642.9365     489.4731
   1426.10352     646.4428     491.0579   1426.10352     646.4428     491.0579
   1426.08826     649.4063     492.9612   1426.08826     649.4063     492.9612
   1426.07300     651.0854     495.7621   1426.07300     651.0854     495.7621
   1426.05774     654.2576     496.6772   1426.05774     654.2576     496.6772
   1426.04248     656.4969     498.7479   1426.04248     656.4969     498.7479
   1426.02722     659.1385     500.0263   1426.02722     659.1385     500.0263
   1426.01196     661.6608     502.4417   1426.01196     661.6608     502.4417
   1425.99670     663.4708     504.3671   1425.99670     663.4708     504.3671
   1425.98145     665.0229     506.2392   1425.98145     665.0229     506.2392
   1425.96619     668.0410     507.8673   1425.96619     668.0410     507.8673
   1425.95093     670.3459     509.5858   1425.95093     670.3459     509.5858
   1425.93567     673.3370     510.4736   1425.93567     673.3370     510.4736
   1425.92041     673.8801     511.5302   1425.92041     673.8801     511.5302
   1425.90515     676.0092     513.7190   1425.90515     676.0092     513.7190
   1425.88989     678.3748     515.7654   1425.88989     678.3748     515.7654
   1425.87463     681.9990     517.2722   1425.87463     681.9990     517.2722
   1425.85938     683.6934     518.9932   1425.85938     683.6934     518.9932
   1425.84412     683.8207     520.4213   1425.84412     683.8207     520.4213
   1425.82886     686.6243     522.9988   1425.82886     686.6243     522.9988
   1425.81360     689.3721     524.3566   1425.81360     689.3721     524.3566
   1425.79834     689.5029     525.0178   1425.79834     689.5029     525.0178
   1425.78308     691.8162     527.0157   1425.78308     691.8162     527.0157
   1425.76782     693.0325     529.1803   1425.76782     693.0325     529.1803
   1425.75256     695.8030     531.0403   1425.75256     695.8030     531.0403
   1425.73730     697.3154     531.0654   1425.73730     697.3154     531.0654
   1425.72205     699.7238     533.5369   1425.72205     699.7238     533.5369
   1425.70679     700.5444     534.0637   1425.70679     700.5444     534.0637
   1425.69153     703.2847     535.6398   1425.69153     703.2847     535.6398
   1425.67627     703.1654     538.1296   1425.67627     703.1654     538.1296
   1425.66101     704.0603     539.0385   1425.66101     704.0603     539.0385
   1425.64575     706.7161     540.6874   1425.64575     706.7161     540.6874
   1425.63049     708.8467     541.7884   1425.63049     708.8467     541.7884
   1425.61523     711.1068     543.0775   1425.61523     711.1068     543.0775
   1425.59998     711.8384     544.1046   1425.59998     711.8384     544.1046
   1425.58472     713.0182     545.8357   1425.58472     713.0182     545.8357
   1425.56946     714.7859     547.8817   1425.56946     714.7859     547.8817
   1425.55420     715.1910     548.5795   1425.55420     715.1910     548.5795
   1425.53894     718.5268     551.0455   1425.53894     718.5268     551.0455
   1425.52368     718.3575     550.4528   1425.52368     718.3575     550.4528
   1425.50842     719.2490     553.1450   1425.50842     719.2490     553.1450
   1425.49316     721.5528     554.5821   1425.49316     721.5528     554.5821
   1425.47791     722.4756     554.9726   1425.47791     722.4756     554.9726
   1425.46265     723.8353     555.8094   1425.46265     723.8353     555.8094
   1425.44739     725.7277     558.5093   1425.44739     725.7277     558.5093
   1425.43213     725.7050     559.2056   1425.43213     725.7050     559.2056
   1425.41687     726.8013     561.0605   1425.41687     726.8013     561.0605
   1425.40161     727.0169     561.5797   1425.40161     727.0169     561.5797
   1425.38635     729.2325     561.3212   1425.38635     729.2325     561.3212
   1425.37109     730.4799     563.2271   1425.37109     730.4799     563.2271
   1425.35583     731.2880     565.0283   1425.35583     731.2880     565.0283
   1425.34058     732.3617     565.6827   1425.34058     732.3617     565.6827
   1425.32532     732.5798     566.7086   1425.32532     732.5798     566.7086
   1425.31006     733.8792     568.6494   1425.31006     733.8792     568.6494
   1425.29480     735.0562     569.2551   1425.29480     735.0562     569.2551
   1425.27954     735.3868     570.8065   1425.27954     735.3868     570.8065
   1425.26428     737.2097     572.0243   1425.26428     737.2097     572.0243
   1425.24902     736.3814     572.6173   1425.24902     736.3814     572.6173
   1425.23376     738.7792     573.5490   1425.23376     738.7792     573.5490
   1425.21851     738.5502     575.3041   1425.21851     738.5502     575.3041
   1425.20325     738.6893     575.1200   1425.20325     738.6893     575.1200
   1425.18799     741.2656     576.3525   1425.18799     741.2656     576.3525
   1425.17273     739.6356     578.0754   1425.17273     739.6356     578.0754
   1425.15747     741.2041     579.0831   1425.15747     741.2041     579.0831
   1425.14221     743.0439     579.5994   1425.14221     743.0439     579.5994
   1425.12695     742.5255     582.0780   1425.12695     742.5255     582.0780
   1425.11169     743.3655     581.0804   1425.11169     743.3655     581.0804
   1425.09644     742.6367     582.5906   1425.09644     742.6367     582.5906
   1425.08118     743.8436     583.4930   1425.08118     743.8436     583.4930
   1425.06592     744.4971     584.1426   1425.06592     744.4971     584.1426
   1425.05066     745.2737     585.3074   1425.05066     745.2737     585.3074
   1425.03540     745.7388     585.8735   1425.03540     745.7388     585.8735
   1425.02014     745.0629     587.1254   1425.02014     745.0629     587.1254
   1425.00488     746.6468     587.7413   1425.00488     746.6468     587.7413
   1424.98962     747.1620     588.4899   1424.98962     747.1620     588.4899
   1424.97437     747.7627     590.6306   1424.97437     747.7627     590.6306
   1424.95911     747.4623     591.4199   1424.95911     747.4623     591.4199
   1424.94385     747.2125     592.5983   1424.94385     747.2125     592.5983
   1424.92859     748.4077     593.0891   1424.92859     748.4077     593.0891
   1424.91333     748.4100     593.0593   1424.91333     748.4100     593.0593
   1424.89807     746.8217     593.9887   1424.89807     746.8217     593.9887
   1424.88281     746.9616     594.8812   1424.88281     746.9616     594.8812
   1424.86755     748.5648     596.4999   1424.86755     748.5648     596.4999
   1424.85229     748.7933     596.7203   1424.85229     748.7933     596.7203
   1424.83704     749.7379     596.7574   1424.83704     749.7379     596.7574
   1424.82178     750.0045     598.1858   1424.82178     750.0045     598.1858
   1424.80652     749.3178     599.9191   1424.80652     749.3178     599.9191
   1424.79126     750.2377     600.2492   1424.79126     750.2377     600.2492
   1424.77600     749.3935     600.8658   1424.77600     749.3935     600.8658
   1424.76074     750.9183     600.4051   1424.76074     750.9183     600.4051
   1424.74548     750.3310     602.0663   1424.74548     750.3310     602.0663
   1424.73022     750.8566     602.7985   1424.73022     750.8566     602.7985
   1424.71497     749.8776     603.8308   1424.71497     749.8776     603.8308
   1424.69971     749.7377     604.1594   1424.69971     749.7377     604.1594
   1424.68445     750.2054     604.8734   1424.68445     750.2054     604.8734
   1424.66919     750.6518     605.7014   1424.66919     750.6518     605.7014
   1424.65393     750.1230     606.9305   1424.65393     750.1230     606.9305
   1424.63867     750.0989     606.8689   1424.63867     750.0989     606.8689
   1424.62341     751.1679     608.7843   1424.62341     751.1679     608.7843
   1424.60815     750.1778     608.9930   1424.60815     750.1778     608.9930
   1424.59290     751.2313     610.6451   1424.59290     751.2313     610.6451
   1424.57764     748.6324     609.9432   1424.57764     748.6324     609.9432
   1424.56238     750.6937     610.7197   1424.56238     750.6937     610.7197
   1424.54712     749.4558     611.0486   1424.54712     749.4558     611.0486
   1424.53186     749.3873     611.9382   1424.53186     749.3873     611.9382
   1424.51660     749.2421     612.5409   1424.51660     749.2421     612.5409
   1424.50134     749.3320     613.3584   1424.50134     749.3320     613.3584
   1424.48608     749.4262     613.8381   1424.48608     749.4262     613.8381
   1424.47083     749.1533     612.9529   1424.47083     749.1533     612.9529
   1424.45557     749.6531     615.4213   1424.45557     749.6531     615.4213
   1424.44031     748.9911     615.0841   1424.44031     748.9911     615.0841
   1424.42505     749.2859     616.2375   1424.42505     749.2859     616.2375
   1424.40979     748.2451     616.0342   1424.40979     748.2451     616.0342
   1424.39453     747.7336     616.5590   1424.39453     747.7336     616.5590
   1424.37927     748.3645     618.1822   1424.37927     748.3645     618.1822
   1424.36401     749.3222     618.3802   1424.36401     749.3222     618.3802
   1424.34875     748.1898     618.7202   1424.34875     748.1898     618.7202
   1424.33350     747.6791     618.5274   1424.33350     747.6791     618.5274
   1424.31824     747.8680     619.8181   1424.31824     747.8680     619.8181
   1424.30298     747.6472     620.4869   1424.30298     747.6472     620.4869
   1424.28772     746.8608     620.6947   1424.28772     746.8608     620.6947
   1424.27246     747.6880     620.7419   1424.27246     747.6880     620.7419
   1424.25720     748.0839     622.0489   1424.25720     748.0839     622.0489
   1424.24194     746.7358     622.5017   1424.24194     746.7358     622.5017
   1424.22668     746.0822     623.6628   1424.22668     746.0822     623.6628
   1424.21143     747.1528     623.3969   1424.21143     747.1528     623.3969
   1424.19617     746.3855     623.1347   1424.19617     746.3855     623.1347
   1424.18091     744.8535     624.9280   1424.18091     744.8535     624.9280
   1424.16565     745.2288     623.7155   1424.16565     745.2288     623.7155
