#     FILENAME=!Skynet_57528_lach-cc-202_20607_21057.cyb.fits
#     BASENAME=Skynet_57528_lach-cc-202_20607_21057
#     SRC_NAME=lach-cc-202
#     OBSERVER=ccmadison16_9505
#     DATE_OBS=2016-05-20T20:30:53.930
#        OBSID=20607
#      SCANNUM=21057
#          MJD=57528.8558
#          UTC=73942
#     SCANTYPE=track
#     DATAMODE=HIRES
#     TUNEFREQ=1420.0000
# Actual_FREQ1=1420.0000
# Actual_FREQ2=1420.0000
#    LO1Tuning=6870.000
#     RFFILTER=1355_1435
#        OBSBW=-15.6250
#        NCHAN=1024 
#        FOCUS=37.1148
#           RA=06:31:15.25
#          DEC=09:43:01.19
#      RA(hrs)=6.520900
#     DEC(deg)=9.717000
#    AZIM(deg)=197.089
#    ELEV(deg)=60.083
#     IFattens=10.00, 9.00
#      WARNING=None
#    TCAL_XL1=7.9635
#    TCAL_YR1=9.1340
#    TCAL_XL2=7.9635
#    TCAL_YR2=9.1340
#     TRX_XL1=11.7060
#     TRX_YR1=11.7060
#     TRX_XL2=11.7060
#     TRX_YR2=11.7060
#        TAVE=1.0000
#Freq1(MHz)          XL1          YR1  Freq2(MHz)          XL2          YR2 

   1427.81250     363.0721     269.6318   1427.81250     363.0721     269.6318
   1427.79724     363.6061     270.1459   1427.79724     363.6061     270.1459
   1427.78198     364.4189     271.0717   1427.78198     364.4189     271.0717
   1427.76672     365.1882     271.7642   1427.76672     365.1882     271.7642
   1427.75146     365.7085     272.6983   1427.75146     365.7085     272.6983
   1427.73621     367.2979     273.6942   1427.73621     367.2979     273.6942
   1427.72095     367.5221     274.9848   1427.72095     367.5221     274.9848
   1427.70569     368.9118     275.4665   1427.70569     368.9118     275.4665
   1427.69043     369.6841     276.7731   1427.69043     369.6841     276.7731
   1427.67517     370.3885     277.9910   1427.67517     370.3885     277.9910
   1427.65991     371.8029     278.7805   1427.65991     371.8029     278.7805
   1427.64465     373.6602     280.7402   1427.64465     373.6602     280.7402
   1427.62939     374.4919     281.9230   1427.62939     374.4919     281.9230
   1427.61414     375.8357     282.9290   1427.61414     375.8357     282.9290
   1427.59888     376.7972     283.7600   1427.59888     376.7972     283.7600
   1427.58362     378.4503     285.4827   1427.58362     378.4503     285.4827
   1427.56836     379.5519     286.6048   1427.56836     379.5519     286.6048
   1427.55310     380.5326     288.1327   1427.55310     380.5326     288.1327
   1427.53784     383.3069     289.0519   1427.53784     383.3069     289.0519
   1427.52258     384.6503     290.7587   1427.52258     384.6503     290.7587
   1427.50732     386.2079     292.5412   1427.50732     386.2079     292.5412
   1427.49207     387.6397     294.1867   1427.49207     387.6397     294.1867
   1427.47681     389.3197     295.6147   1427.47681     389.3197     295.6147
   1427.46155     391.2352     297.8838   1427.46155     391.2352     297.8838
   1427.44629     393.0780     299.2932   1427.44629     393.0780     299.2932
   1427.43103     394.6392     300.5703   1427.43103     394.6392     300.5703
   1427.41577     396.6208     302.8965   1427.41577     396.6208     302.8965
   1427.40051     398.1992     304.3124   1427.40051     398.1992     304.3124
   1427.38525     400.5271     306.4685   1427.38525     400.5271     306.4685
   1427.37000     401.8748     307.6417   1427.37000     401.8748     307.6417
   1427.35474     404.4682     309.3564   1427.35474     404.4682     309.3564
   1427.33948     406.5736     311.8638   1427.33948     406.5736     311.8638
   1427.32422     408.2855     313.8088   1427.32422     408.2855     313.8088
   1427.30896     410.1705     315.1674   1427.30896     410.1705     315.1674
   1427.29370     413.0154     317.5186   1427.29370     413.0154     317.5186
   1427.27844     415.2658     319.8964   1427.27844     415.2658     319.8964
   1427.26318     417.2796     321.9341   1427.26318     417.2796     321.9341
   1427.24792     419.9984     324.2605   1427.24792     419.9984     324.2605
   1427.23267     421.8103     326.0091   1427.23267     421.8103     326.0091
   1427.21741     424.1956     328.2531   1427.21741     424.1956     328.2531
   1427.20215     427.1815     330.2827   1427.20215     427.1815     330.2827
   1427.18689     429.5589     332.3543   1427.18689     429.5589     332.3543
   1427.17163     431.8383     334.2201   1427.17163     431.8383     334.2201
   1427.15637     435.2465     336.8676   1427.15637     435.2465     336.8676
   1427.14111     436.3087     338.6397   1427.14111     436.3087     338.6397
   1427.12585     439.1647     341.2958   1427.12585     439.1647     341.2958
   1427.11060     442.1589     343.4522   1427.11060     442.1589     343.4522
   1427.09534     444.3210     346.0850   1427.09534     444.3210     346.0850
   1427.08008     447.3772     348.1377   1427.08008     447.3772     348.1377
   1427.06482     450.5530     350.3989   1427.06482     450.5530     350.3989
   1427.04956     452.7273     352.9351   1427.04956     452.7273     352.9351
   1427.03430     455.3580     354.8724   1427.03430     455.3580     354.8724
   1427.01904     458.8971     358.1720   1427.01904     458.8971     358.1720
   1427.00378     460.3196     360.7590   1427.00378     460.3196     360.7590
   1426.98853     464.2637     363.3814   1426.98853     464.2637     363.3814
   1426.97327     466.6602     365.5786   1426.97327     466.6602     365.5786
   1426.95801     469.4585     368.1751   1426.95801     469.4585     368.1751
   1426.94275     471.8500     370.5185   1426.94275     471.8500     370.5185
   1426.92749     475.3473     373.2419   1426.92749     475.3473     373.2419
   1426.91223     478.9852     375.2188   1426.91223     478.9852     375.2188
   1426.89697     480.9698     378.4819   1426.89697     480.9698     378.4819
   1426.88171     484.0151     381.0245   1426.88171     484.0151     381.0245
   1426.86646     486.8018     383.5073   1426.86646     486.8018     383.5073
   1426.85120     489.6520     385.4211   1426.85120     489.6520     385.4211
   1426.83594     492.8037     388.9521   1426.83594     492.8037     388.9521
   1426.82068     494.7115     391.4568   1426.82068     494.7115     391.4568
   1426.80542     498.4047     393.7436   1426.80542     498.4047     393.7436
   1426.79016     501.6045     396.0804   1426.79016     501.6045     396.0804
   1426.77490     504.3763     399.0039   1426.77490     504.3763     399.0039
   1426.75964     507.1776     402.6492   1426.75964     507.1776     402.6492
   1426.74438     511.0233     404.2797   1426.74438     511.0233     404.2797
   1426.72913     514.1309     407.8545   1426.72913     514.1309     407.8545
   1426.71387     516.7292     409.3556   1426.71387     516.7292     409.3556
   1426.69861     519.1923     412.5108   1426.69861     519.1923     412.5108
   1426.68335     523.4292     415.1657   1426.68335     523.4292     415.1657
   1426.66809     526.2218     417.5970   1426.66809     526.2218     417.5970
   1426.65283     528.7516     420.9816   1426.65283     528.7516     420.9816
   1426.63757     531.1969     423.1747   1426.63757     531.1969     423.1747
   1426.62231     535.6777     430.7506   1426.62231     535.6777     430.7506
   1426.60706     537.9601     428.8966   1426.60706     537.9601     428.8966
   1426.59180     540.7065     430.9477   1426.59180     540.7065     430.9477
   1426.57654     544.0979     433.7230   1426.57654     544.0979     433.7230
   1426.56128     546.7725     436.6879   1426.56128     546.7725     436.6879
   1426.54602     549.3736     439.7393   1426.54602     549.3736     439.7393
   1426.53076     552.6464     442.4040   1426.53076     552.6464     442.4040
   1426.51550     555.2302     444.7929   1426.51550     555.2302     444.7929
   1426.50024     557.7860     446.8434   1426.50024     557.7860     446.8434
   1426.48499     561.2840     449.8388   1426.48499     561.2840     449.8388
   1426.46973     564.7792     453.0007   1426.46973     564.7792     453.0007
   1426.45447     568.5993     455.4908   1426.45447     568.5993     455.4908
   1426.43921     570.8528     458.3804   1426.43921     570.8528     458.3804
   1426.42395     574.1401     460.4389   1426.42395     574.1401     460.4389
   1426.40869     576.5364     463.0904   1426.40869     576.5364     463.0904
   1426.39343     579.5067     465.5074   1426.39343     579.5067     465.5074
   1426.37817     581.8721     468.5690   1426.37817     581.8721     468.5690
   1426.36292     584.4160     471.1519   1426.36292     584.4160     471.1519
   1426.34766     587.5477     473.7533   1426.34766     587.5477     473.7533
   1426.33240     590.0595     475.4563   1426.33240     590.0595     475.4563
   1426.31714     593.4313     478.2351   1426.31714     593.4313     478.2351
   1426.30188     595.6951     481.5479   1426.30188     595.6951     481.5479
   1426.28662     598.9449     483.2763   1426.28662     598.9449     483.2763
   1426.27136     601.4863     486.1452   1426.27136     601.4863     486.1452
   1426.25610     604.0652     488.3293   1426.25610     604.0652     488.3293
   1426.24084     607.8214     491.0309   1426.24084     607.8214     491.0309
   1426.22559     610.3801     493.4919   1426.22559     610.3801     493.4919
   1426.21033     613.2549     496.4629   1426.21033     613.2549     496.4629
   1426.19507     615.5754     498.5966   1426.19507     615.5754     498.5966
   1426.17981     618.2650     501.4412   1426.17981     618.2650     501.4412
   1426.16455     620.4493     503.3274   1426.16455     620.4493     503.3274
   1426.14929     622.1049     505.6740   1426.14929     622.1049     505.6740
   1426.13403     626.0522     507.6688   1426.13403     626.0522     507.6688
   1426.11877     628.6273     511.1351   1426.11877     628.6273     511.1351
   1426.10352     629.9469     512.5860   1426.10352     629.9469     512.5860
   1426.08826     634.6490     515.4233   1426.08826     634.6490     515.4233
   1426.07300     635.4771     517.6413   1426.07300     635.4771     517.6413
   1426.05774     638.0714     520.1324   1426.05774     638.0714     520.1324
   1426.04248     640.4128     522.2704   1426.04248     640.4128     522.2704
   1426.02722     643.0539     524.2221   1426.02722     643.0539     524.2221
   1426.01196     644.9188     526.5334   1426.01196     644.9188     526.5334
   1425.99670     648.6788     528.9391   1425.99670     648.6788     528.9391
   1425.98145     649.0943     530.5666   1425.98145     649.0943     530.5666
   1425.96619     651.6708     532.0374   1425.96619     651.6708     532.0374
   1425.95093     653.8334     534.4194   1425.95093     653.8334     534.4194
   1425.93567     656.1768     536.3378   1425.93567     656.1768     536.3378
   1425.92041     659.0954     539.3116   1425.92041     659.0954     539.3116
   1425.90515     660.6580     541.5767   1425.90515     660.6580     541.5767
   1425.88989     663.3327     543.2028   1425.88989     663.3327     543.2028
   1425.87463     666.1331     544.8412   1425.87463     666.1331     544.8412
   1425.85938     667.2009     547.8987   1425.85938     667.2009     547.8987
   1425.84412     669.8903     549.0397   1425.84412     669.8903     549.0397
   1425.82886     671.4411     551.0375   1425.82886     671.4411     551.0375
   1425.81360     674.4575     553.0583   1425.81360     674.4575     553.0583
   1425.79834     674.8739     555.2976   1425.79834     674.8739     555.2976
   1425.78308     677.1707     558.5361   1425.78308     677.1707     558.5361
   1425.76782     679.4296     558.4005   1425.76782     679.4296     558.4005
   1425.75256     680.8016     560.3904   1425.75256     680.8016     560.3904
   1425.73730     682.1377     562.1146   1425.73730     682.1377     562.1146
   1425.72205     684.8002     564.3961   1425.72205     684.8002     564.3961
   1425.70679     685.7048     566.0058   1425.70679     685.7048     566.0058
   1425.69153     688.0361     568.1149   1425.69153     688.0361     568.1149
   1425.67627     689.3718     570.0747   1425.67627     689.3718     570.0747
   1425.66101     691.3741     571.2968   1425.66101     691.3741     571.2968
   1425.64575     693.8463     572.6273   1425.64575     693.8463     572.6273
   1425.63049     695.2599     573.9640   1425.63049     695.2599     573.9640
   1425.61523     696.0948     575.2281   1425.61523     696.0948     575.2281
   1425.59998     698.2159     577.6038   1425.59998     698.2159     577.6038
   1425.58472     699.3524     578.8210   1425.58472     699.3524     578.8210
   1425.56946     701.9432     581.3965   1425.56946     701.9432     581.3965
   1425.55420     702.7972     582.8668   1425.55420     702.7972     582.8668
   1425.53894     703.4552     584.0227   1425.53894     703.4552     584.0227
   1425.52368     706.0156     585.8859   1425.52368     706.0156     585.8859
   1425.50842     706.8461     586.3210   1425.50842     706.8461     586.3210
   1425.49316     708.5491     588.4644   1425.49316     708.5491     588.4644
   1425.47791     710.0253     589.2855   1425.47791     710.0253     589.2855
   1425.46265     711.4327     591.4047   1425.46265     711.4327     591.4047
   1425.44739     711.6007     592.1301   1425.44739     711.6007     592.1301
   1425.43213     711.6340     593.5873   1425.43213     711.6340     593.5873
   1425.41687     714.7251     596.6025   1425.41687     714.7251     596.6025
   1425.40161     715.6894     596.9551   1425.40161     715.6894     596.9551
   1425.38635     717.2499     597.5942   1425.38635     717.2499     597.5942
   1425.37109     718.8951     598.0944   1425.37109     718.8951     598.0944
   1425.35583     718.9713     599.6942   1425.35583     718.9713     599.6942
   1425.34058     720.4478     601.1706   1425.34058     720.4478     601.1706
   1425.32532     721.3032     602.1286   1425.32532     721.3032     602.1286
   1425.31006     721.4354     603.6912   1425.31006     721.4354     603.6912
   1425.29480     723.3397     604.0468   1425.29480     723.3397     604.0468
   1425.27954     723.4099     605.6879   1425.27954     723.4099     605.6879
   1425.26428     725.6439     607.3721   1425.26428     725.6439     607.3721
   1425.24902     725.1943     606.6169   1425.24902     725.1943     606.6169
   1425.23376     726.6745     608.0760   1425.23376     726.6745     608.0760
   1425.21851     727.6309     609.1078   1425.21851     727.6309     609.1078
   1425.20325     727.6380     610.3694   1425.20325     727.6380     610.3694
   1425.18799     729.0415     610.9908   1425.18799     729.0415     610.9908
   1425.17273     728.5423     612.5868   1425.17273     728.5423     612.5868
   1425.15747     730.6334     613.6060   1425.15747     730.6334     613.6060
   1425.14221     730.3083     613.8091   1425.14221     730.3083     613.8091
   1425.12695     731.5436     614.8118   1425.12695     731.5436     614.8118
   1425.11169     732.3593     616.6431   1425.11169     732.3593     616.6431
   1425.09644     732.8666     616.2750   1425.09644     732.8666     616.2750
   1425.08118     732.8718     618.3121   1425.08118     732.8718     618.3121
   1425.06592     733.5701     617.7120   1425.06592     733.5701     617.7120
   1425.05066     734.4484     618.0753   1425.05066     734.4484     618.0753
   1425.03540     735.1278     619.6315   1425.03540     735.1278     619.6315
   1425.02014     736.2567     619.4989   1425.02014     736.2567     619.4989
   1425.00488     736.3413     620.8572   1425.00488     736.3413     620.8572
   1424.98962     736.9984     621.0231   1424.98962     736.9984     621.0231
   1424.97437     736.3630     621.8584   1424.97437     736.3630     621.8584
   1424.95911     736.2101     621.8638   1424.95911     736.2101     621.8638
   1424.94385     737.7531     623.6636   1424.94385     737.7531     623.6636
   1424.92859     738.1185     624.3620   1424.92859     738.1185     624.3620
   1424.91333     738.5455     623.7144   1424.91333     738.5455     623.7144
   1424.89807     738.8520     624.0710   1424.89807     738.8520     624.0710
   1424.88281     737.9774     625.2538   1424.88281     737.9774     625.2538
   1424.86755     738.7627     624.6658   1424.86755     738.7627     624.6658
   1424.85229     738.8356     625.9203   1424.85229     738.8356     625.9203
   1424.83704     739.1941     627.2007   1424.83704     739.1941     627.2007
   1424.82178     738.7825     625.6071   1424.82178     738.7825     625.6071
   1424.80652     740.7953     627.0966   1424.80652     740.7953     627.0966
   1424.79126     738.5319     627.5874   1424.79126     738.5319     627.5874
   1424.77600     739.8275     627.9855   1424.77600     739.8275     627.9855
   1424.76074     740.3359     628.4960   1424.76074     740.3359     628.4960
   1424.74548     739.8032     628.9142   1424.74548     739.8032     628.9142
   1424.73022     739.9721     629.6094   1424.73022     739.9721     629.6094
   1424.71497     740.4989     628.7272   1424.71497     740.4989     628.7272
   1424.69971     740.6268     629.6201   1424.69971     740.6268     629.6201
   1424.68445     741.7111     630.5485   1424.68445     741.7111     630.5485
   1424.66919     741.7375     630.2085   1424.66919     741.7375     630.2085
   1424.65393     740.8577     630.0092   1424.65393     740.8577     630.0092
   1424.63867     740.8066     629.6856   1424.63867     740.8066     629.6856
   1424.62341     740.3606     630.4068   1424.62341     740.3606     630.4068
   1424.60815     741.1040     630.8479   1424.60815     741.1040     630.8479
   1424.59290     740.0913     629.9220   1424.59290     740.0913     629.9220
   1424.57764     740.1356     630.0436   1424.57764     740.1356     630.0436
   1424.56238     738.9863     630.8577   1424.56238     738.9863     630.8577
   1424.54712     741.0082     630.8925   1424.54712     741.0082     630.8925
   1424.53186     740.6686     630.4986   1424.53186     740.6686     630.4986
   1424.51660     739.9025     630.6814   1424.51660     739.9025     630.6814
   1424.50134     739.7670     631.3212   1424.50134     739.7670     631.3212
   1424.48608     738.9680     630.9752   1424.48608     738.9680     630.9752
   1424.47083     738.8647     630.4628   1424.47083     738.8647     630.4628
   1424.45557     738.6169     631.6354   1424.45557     738.6169     631.6354
   1424.44031     737.9379     629.8932   1424.44031     737.9379     629.8932
   1424.42505     739.3061     630.6100   1424.42505     739.3061     630.6100
   1424.40979     739.2017     630.1497   1424.40979     739.2017     630.1497
   1424.39453     737.8277     630.2889   1424.39453     737.8277     630.2889
   1424.37927     738.3446     629.9727   1424.37927     738.3446     629.9727
   1424.36401     737.9553     630.3176   1424.36401     737.9553     630.3176
   1424.34875     737.5386     629.9304   1424.34875     737.5386     629.9304
   1424.33350     737.9176     628.7489   1424.33350     737.9176     628.7489
   1424.31824     736.4816     628.9877   1424.31824     736.4816     628.9877
   1424.30298     735.9449     628.2347   1424.30298     735.9449     628.2347
   1424.28772     736.6373     628.3585   1424.28772     736.6373     628.3585
   1424.27246     735.8882     628.7751   1424.27246     735.8882     628.7751
   1424.25720     735.6478     628.8644   1424.25720     735.6478     628.8644
   1424.24194     736.4111     627.2048   1424.24194     736.4111     627.2048
   1424.22668     734.7983     628.2115   1424.22668     734.7983     628.2115
   1424.21143     735.0223     627.8049   1424.21143     735.0223     627.8049
   1424.19617     734.8162     627.0308   1424.19617     734.8162     627.0308
   1424.18091     735.0690     627.1271   1424.18091     735.0690     627.1271
   1424.16565     733.6651     626.6884   1424.16565     733.6651     626.6884
