#     FILENAME=!Skynet_57528_lach-cc-221_20634_21038.cyb.fits
#     BASENAME=Skynet_57528_lach-cc-221_20634_21038
#     SRC_NAME=lach-cc-221
#     OBSERVER=ccmadison16_9505
#     DATE_OBS=2016-05-20T19:52:43.560
#        OBSID=20634
#      SCANNUM=21038
#          MJD=57528.8293
#          UTC=71653
#     SCANTYPE=track
#     DATAMODE=HIRES
#     TUNEFREQ=1420.0000
# Actual_FREQ1=1420.0000
# Actual_FREQ2=1420.0000
#    LO1Tuning=6870.000
#     RFFILTER=1355_1435
#        OBSBW=-15.6250
#        NCHAN=1024 
#        FOCUS=37.0709
#           RA=07:06:13.58
#          DEC=-07:10:29.57
#      RA(hrs)=7.103800
#     DEC(deg)=-7.174900
#    AZIM(deg)=166.414
#    ELEV(deg)=43.359
#     IFattens=10.00, 9.00
#      WARNING=None
#    TCAL_XL1=7.9635
#    TCAL_YR1=9.1340
#    TCAL_XL2=7.9635
#    TCAL_YR2=9.1340
#     TRX_XL1=11.7060
#     TRX_YR1=11.7060
#     TRX_XL2=11.7060
#     TRX_YR2=11.7060
#        TAVE=1.0000
#Freq1(MHz)          XL1          YR1  Freq2(MHz)          XL2          YR2 

   1427.81250     351.7762     265.8228   1427.81250     351.7762     265.8228
   1427.79724     352.0142     266.0520   1427.79724     352.0142     266.0520
   1427.78198     353.4260     266.5977   1427.78198     353.4260     266.5977
   1427.76672     354.0406     267.2799   1427.76672     354.0406     267.2799
   1427.75146     354.7982     267.8466   1427.75146     354.7982     267.8466
   1427.73621     355.3066     268.2119   1427.73621     355.3066     268.2119
   1427.72095     356.7187     268.3151   1427.72095     356.7187     268.3151
   1427.70569     357.8166     269.0901   1427.70569     357.8166     269.0901
   1427.69043     358.3167     270.7470   1427.69043     358.3167     270.7470
   1427.67517     359.7270     271.2202   1427.67517     359.7270     271.2202
   1427.65991     360.7936     271.9114   1427.65991     360.7936     271.9114
   1427.64465     361.4983     272.6413   1427.64465     361.4983     272.6413
   1427.62939     362.9736     273.6096   1427.62939     362.9736     273.6096
   1427.61414     364.1768     274.4119   1427.61414     364.1768     274.4119
   1427.59888     365.2361     275.1714   1427.59888     365.2361     275.1714
   1427.58362     366.9834     275.9871   1427.58362     366.9834     275.9871
   1427.56836     367.9267     277.2648   1427.56836     367.9267     277.2648
   1427.55310     369.4807     278.1190   1427.55310     369.4807     278.1190
   1427.53784     371.6218     279.7361   1427.53784     371.6218     279.7361
   1427.52258     372.9141     280.5267   1427.52258     372.9141     280.5267
   1427.50732     374.6118     281.4421   1427.50732     374.6118     281.4421
   1427.49207     375.5278     282.2747   1427.49207     375.5278     282.2747
   1427.47681     377.9407     284.0137   1427.47681     377.9407     284.0137
   1427.46155     379.5882     285.1532   1427.46155     379.5882     285.1532
   1427.44629     381.5410     286.3542   1427.44629     381.5410     286.3542
   1427.43103     383.1661     287.5616   1427.43103     383.1661     287.5616
   1427.41577     384.9241     289.0259   1427.41577     384.9241     289.0259
   1427.40051     385.8352     290.1014   1427.40051     385.8352     290.1014
   1427.38525     389.0459     292.2315   1427.38525     389.0459     292.2315
   1427.37000     389.8780     293.0587   1427.37000     389.8780     293.0587
   1427.35474     391.7534     294.8362   1427.35474     391.7534     294.8362
   1427.33948     394.2644     296.4328   1427.33948     394.2644     296.4328
   1427.32422     396.3979     297.1468   1427.32422     396.3979     297.1468
   1427.30896     398.0834     298.8923   1427.30896     398.0834     298.8923
   1427.29370     400.7664     300.9681   1427.29370     400.7664     300.9681
   1427.27844     402.5738     302.0945   1427.27844     402.5738     302.0945
   1427.26318     404.7015     303.8764   1427.26318     404.7015     303.8764
   1427.24792     406.7296     305.2550   1427.24792     406.7296     305.2550
   1427.23267     408.8541     307.7125   1427.23267     408.8541     307.7125
   1427.21741     411.7538     309.3548   1427.21741     411.7538     309.3548
   1427.20215     413.8775     311.2702   1427.20215     413.8775     311.2702
   1427.18689     415.7592     312.6867   1427.18689     415.7592     312.6867
   1427.17163     418.2528     314.7085   1427.17163     418.2528     314.7085
   1427.15637     420.7995     316.4443   1427.15637     420.7995     316.4443
   1427.14111     423.7305     318.3978   1427.14111     423.7305     318.3978
   1427.12585     425.1023     320.2448   1427.12585     425.1023     320.2448
   1427.11060     427.8045     322.6407   1427.11060     427.8045     322.6407
   1427.09534     430.4440     324.4127   1427.09534     430.4440     324.4127
   1427.08008     433.4311     326.2734   1427.08008     433.4311     326.2734
   1427.06482     435.3654     328.1237   1427.06482     435.3654     328.1237
   1427.04956     437.8677     330.5697   1427.04956     437.8677     330.5697
   1427.03430     441.2360     332.3012   1427.03430     441.2360     332.3012
   1427.01904     442.6815     334.4879   1427.01904     442.6815     334.4879
   1427.00378     446.1620     335.9295   1427.00378     446.1620     335.9295
   1426.98853     448.1672     338.3503   1426.98853     448.1672     338.3503
   1426.97327     451.2495     340.3733   1426.97327     451.2495     340.3733
   1426.95801     453.4274     342.6186   1426.95801     453.4274     342.6186
   1426.94275     455.8353     345.0387   1426.94275     455.8353     345.0387
   1426.92749     458.8615     347.3986   1426.92749     458.8615     347.3986
   1426.91223     461.5793     349.6965   1426.91223     461.5793     349.6965
   1426.89697     464.4842     351.5511   1426.89697     464.4842     351.5511
   1426.88171     467.3569     353.7386   1426.88171     467.3569     353.7386
   1426.86646     469.8106     356.1846   1426.86646     469.8106     356.1846
   1426.85120     472.4821     358.4250   1426.85120     472.4821     358.4250
   1426.83594     475.0311     360.5788   1426.83594     475.0311     360.5788
   1426.82068     478.0500     362.9911   1426.82068     478.0500     362.9911
   1426.80542     480.4524     365.0002   1426.80542     480.4524     365.0002
   1426.79016     483.1043     367.2858   1426.79016     483.1043     367.2858
   1426.77490     485.3900     369.8326   1426.77490     485.3900     369.8326
   1426.75964     487.9841     372.5260   1426.75964     487.9841     372.5260
   1426.74438     491.1825     374.7102   1426.74438     491.1825     374.7102
   1426.72913     494.0767     377.1875   1426.72913     494.0767     377.1875
   1426.71387     497.5906     379.3538   1426.71387     497.5906     379.3538
   1426.69861     499.9255     381.9837   1426.69861     499.9255     381.9837
   1426.68335     501.9293     384.3271   1426.68335     501.9293     384.3271
   1426.66809     505.1430     386.7231   1426.66809     505.1430     386.7231
   1426.65283     508.6259     388.7713   1426.65283     508.6259     388.7713
   1426.63757     510.6247     391.4836   1426.63757     510.6247     391.4836
   1426.62231     515.1070     394.9358   1426.62231     515.1070     394.9358
   1426.60706     517.0988     396.6021   1426.60706     517.0988     396.6021
   1426.59180     519.0292     398.6825   1426.59180     519.0292     398.6825
   1426.57654     521.4385     400.7109   1426.57654     521.4385     400.7109
   1426.56128     524.9539     403.7348   1426.56128     524.9539     403.7348
   1426.54602     526.0824     406.0303   1426.54602     526.0824     406.0303
   1426.53076     530.1018     408.9677   1426.53076     530.1018     408.9677
   1426.51550     532.2882     410.8373   1426.51550     532.2882     410.8373
   1426.50024     535.3275     413.4144   1426.50024     535.3275     413.4144
   1426.48499     538.6097     416.5348   1426.48499     538.6097     416.5348
   1426.46973     540.5510     418.5179   1426.46973     540.5510     418.5179
   1426.45447     544.1609     421.1366   1426.45447     544.1609     421.1366
   1426.43921     546.6208     423.3081   1426.43921     546.6208     423.3081
   1426.42395     548.0421     427.0520   1426.42395     548.0421     427.0520
   1426.40869     552.6638     429.0260   1426.40869     552.6638     429.0260
   1426.39343     553.0746     430.4033   1426.39343     553.0746     430.4033
   1426.37817     557.6636     434.0443   1426.37817     557.6636     434.0443
   1426.36292     558.7294     435.6384   1426.36292     558.7294     435.6384
   1426.34766     561.3266     438.2868   1426.34766     561.3266     438.2868
   1426.33240     563.4774     441.2444   1426.33240     563.4774     441.2444
   1426.31714     566.9625     443.7100   1426.31714     566.9625     443.7100
   1426.30188     569.9738     446.3407   1426.30188     569.9738     446.3407
   1426.28662     571.5149     448.8672   1426.28662     571.5149     448.8672
   1426.27136     574.1873     450.7217   1426.27136     574.1873     450.7217
   1426.25610     577.2627     452.7958   1426.25610     577.2627     452.7958
   1426.24084     579.9510     456.1118   1426.24084     579.9510     456.1118
   1426.22559     581.8962     458.5325   1426.22559     581.8962     458.5325
   1426.21033     584.4846     461.0675   1426.21033     584.4846     461.0675
   1426.19507     586.4637     463.0858   1426.19507     586.4637     463.0858
   1426.17981     589.3956     466.0847   1426.17981     589.3956     466.0847
   1426.16455     590.4895     467.7609   1426.16455     590.4895     467.7609
   1426.14929     593.1637     470.7310   1426.14929     593.1637     470.7310
   1426.13403     595.5111     473.6563   1426.13403     595.5111     473.6563
   1426.11877     597.7275     475.2922   1426.11877     597.7275     475.2922
   1426.10352     599.9406     476.9200   1426.10352     599.9406     476.9200
   1426.08826     602.6652     480.5507   1426.08826     602.6652     480.5507
   1426.07300     604.7989     482.5119   1426.07300     604.7989     482.5119
   1426.05774     606.9867     485.1290   1426.05774     606.9867     485.1290
   1426.04248     608.8182     487.6917   1426.04248     608.8182     487.6917
   1426.02722     611.1445     489.1642   1426.02722     611.1445     489.1642
   1426.01196     613.9351     491.7875   1426.01196     613.9351     491.7875
   1425.99670     615.9786     494.6228   1425.99670     615.9786     494.6228
   1425.98145     617.8633     496.6659   1425.98145     617.8633     496.6659
   1425.96619     619.7557     499.3813   1425.96619     619.7557     499.3813
   1425.95093     620.5489     500.8820   1425.95093     620.5489     500.8820
   1425.93567     624.0348     503.5658   1425.93567     624.0348     503.5658
   1425.92041     624.7175     506.2809   1425.92041     624.7175     506.2809
   1425.90515     628.3171     507.6625   1425.90515     628.3171     507.6625
   1425.88989     629.2026     510.3781   1425.88989     629.2026     510.3781
   1425.87463     631.1230     513.2068   1425.87463     631.1230     513.2068
   1425.85938     633.3589     514.9065   1425.85938     633.3589     514.9065
   1425.84412     635.5182     517.5174   1425.84412     635.5182     517.5174
   1425.82886     637.0509     519.5540   1425.82886     637.0509     519.5540
   1425.81360     638.5511     521.2916   1425.81360     638.5511     521.2916
   1425.79834     640.4471     523.7017   1425.79834     640.4471     523.7017
   1425.78308     642.5649     526.2639   1425.78308     642.5649     526.2639
   1425.76782     644.2426     528.1219   1425.76782     644.2426     528.1219
   1425.75256     644.5814     529.7013   1425.75256     644.5814     529.7013
   1425.73730     647.6690     532.2639   1425.73730     647.6690     532.2639
   1425.72205     647.7602     534.1351   1425.72205     647.7602     534.1351
   1425.70679     650.0749     536.0933   1425.70679     650.0749     536.0933
   1425.69153     651.7097     538.6375   1425.69153     651.7097     538.6375
   1425.67627     652.5001     540.1051   1425.67627     652.5001     540.1051
   1425.66101     654.7457     541.9222   1425.66101     654.7457     541.9222
   1425.64575     656.3624     545.0772   1425.64575     656.3624     545.0772
   1425.63049     658.6794     546.8633   1425.63049     658.6794     546.8633
   1425.61523     658.5338     549.5640   1425.61523     658.5338     549.5640
   1425.59998     660.4465     550.7606   1425.59998     660.4465     550.7606
   1425.58472     662.7339     552.5370   1425.58472     662.7339     552.5370
   1425.56946     663.5896     554.4985   1425.56946     663.5896     554.4985
   1425.55420     664.5665     556.6442   1425.55420     664.5665     556.6442
   1425.53894     665.3688     558.7489   1425.53894     665.3688     558.7489
   1425.52368     666.9863     559.7977   1425.52368     666.9863     559.7977
   1425.50842     667.6160     562.1194   1425.50842     667.6160     562.1194
   1425.49316     669.5630     563.9164   1425.49316     669.5630     563.9164
   1425.47791     671.2108     566.8011   1425.47791     671.2108     566.8011
   1425.46265     670.7495     568.5544   1425.46265     670.7495     568.5544
   1425.44739     672.7242     570.3715   1425.44739     672.7242     570.3715
   1425.43213     673.6243     572.3463   1425.43213     673.6243     572.3463
   1425.41687     675.8004     573.6071   1425.41687     675.8004     573.6071
   1425.40161     676.0938     574.8647   1425.40161     676.0938     574.8647
   1425.38635     677.3567     576.9376   1425.38635     677.3567     576.9376
   1425.37109     678.6841     578.4747   1425.37109     678.6841     578.4747
   1425.35583     678.6575     579.8492   1425.35583     678.6575     579.8492
   1425.34058     680.6517     581.5221   1425.34058     680.6517     581.5221
   1425.32532     681.1149     583.4587   1425.32532     681.1149     583.4587
   1425.31006     681.3724     585.6542   1425.31006     681.3724     585.6542
   1425.29480     682.7255     586.6346   1425.29480     682.7255     586.6346
   1425.27954     683.4753     588.6303   1425.27954     683.4753     588.6303
   1425.26428     684.2679     589.3920   1425.26428     684.2679     589.3920
   1425.24902     686.2389     591.7518   1425.24902     686.2389     591.7518
   1425.23376     685.5137     593.1183   1425.23376     685.5137     593.1183
   1425.21851     685.7089     594.4686   1425.21851     685.7089     594.4686
   1425.20325     687.1883     596.2027   1425.20325     687.1883     596.2027
   1425.18799     687.5307     597.5931   1425.18799     687.5307     597.5931
   1425.17273     689.2654     600.1211   1425.17273     689.2654     600.1211
   1425.15747     689.4999     600.9093   1425.15747     689.4999     600.9093
   1425.14221     690.3402     602.2925   1425.14221     690.3402     602.2925
   1425.12695     691.2229     604.4046   1425.12695     691.2229     604.4046
   1425.11169     691.1821     605.7198   1425.11169     691.1821     605.7198
   1425.09644     692.1134     606.9711   1425.09644     692.1134     606.9711
   1425.08118     692.0117     607.8734   1425.08118     692.0117     607.8734
   1425.06592     691.7729     609.4312   1425.06592     691.7729     609.4312
   1425.05066     693.5211     611.4601   1425.05066     693.5211     611.4601
   1425.03540     693.7819     611.4264   1425.03540     693.7819     611.4264
   1425.02014     694.5203     614.0907   1425.02014     694.5203     614.0907
   1425.00488     694.7742     614.5123   1425.00488     694.7742     614.5123
   1424.98962     695.4811     616.6650   1424.98962     695.4811     616.6650
   1424.97437     696.5477     618.1964   1424.97437     696.5477     618.1964
   1424.95911     696.4191     617.8911   1424.95911     696.4191     617.8911
   1424.94385     695.5792     619.8988   1424.94385     695.5792     619.8988
   1424.92859     696.4935     621.4296   1424.92859     696.4935     621.4296
   1424.91333     698.0346     622.0739   1424.91333     698.0346     622.0739
   1424.89807     697.2139     622.7068   1424.89807     697.2139     622.7068
   1424.88281     697.1105     625.6893   1424.88281     697.1105     625.6893
   1424.86755     698.9370     625.8628   1424.86755     698.9370     625.8628
   1424.85229     697.3746     625.8725   1424.85229     697.3746     625.8725
   1424.83704     698.0135     627.6572   1424.83704     698.0135     627.6572
   1424.82178     698.7723     628.7867   1424.82178     698.7723     628.7867
   1424.80652     699.7831     629.9512   1424.80652     699.7831     629.9512
   1424.79126     699.2820     630.7962   1424.79126     699.2820     630.7962
   1424.77600     700.5016     631.8239   1424.77600     700.5016     631.8239
   1424.76074     699.6617     632.2313   1424.76074     699.6617     632.2313
   1424.74548     699.7190     634.4774   1424.74548     699.7190     634.4774
   1424.73022     700.0831     634.1772   1424.73022     700.0831     634.1772
   1424.71497     701.2485     636.1025   1424.71497     701.2485     636.1025
   1424.69971     700.3351     636.4138   1424.69971     700.3351     636.4138
   1424.68445     702.2601     637.4413   1424.68445     702.2601     637.4413
   1424.66919     701.0718     638.9892   1424.66919     701.0718     638.9892
   1424.65393     699.8167     638.6877   1424.65393     699.8167     638.6877
   1424.63867     700.6464     640.2214   1424.63867     700.6464     640.2214
   1424.62341     700.6113     641.2149   1424.62341     700.6113     641.2149
   1424.60815     702.0198     640.9086   1424.60815     702.0198     640.9086
   1424.59290     701.7341     641.9655   1424.59290     701.7341     641.9655
   1424.57764     702.2798     643.5546   1424.57764     702.2798     643.5546
   1424.56238     701.3981     644.3602   1424.56238     701.3981     644.3602
   1424.54712     700.1864     644.0255   1424.54712     700.1864     644.0255
   1424.53186     701.3019     645.0439   1424.53186     701.3019     645.0439
   1424.51660     701.5698     646.3115   1424.51660     701.5698     646.3115
   1424.50134     701.0159     647.3386   1424.50134     701.0159     647.3386
   1424.48608     701.2094     646.5271   1424.48608     701.2094     646.5271
   1424.47083     702.5062     647.9423   1424.47083     702.5062     647.9423
   1424.45557     700.9247     647.6234   1424.45557     700.9247     647.6234
   1424.44031     701.0179     648.2944   1424.44031     701.0179     648.2944
   1424.42505     701.3314     649.4261   1424.42505     701.3314     649.4261
   1424.40979     700.8809     650.4417   1424.40979     700.8809     650.4417
   1424.39453     701.5743     649.9020   1424.39453     701.5743     649.9020
   1424.37927     700.8951     650.5610   1424.37927     700.8951     650.5610
   1424.36401     700.7421     651.4399   1424.36401     700.7421     651.4399
   1424.34875     699.7244     652.1285   1424.34875     699.7244     652.1285
   1424.33350     700.3019     652.3063   1424.33350     700.3019     652.3063
   1424.31824     700.1682     652.6062   1424.31824     700.1682     652.6062
   1424.30298     700.9685     652.5724   1424.30298     700.9685     652.5724
   1424.28772     700.5945     652.9546   1424.28772     700.5945     652.9546
   1424.27246     700.7800     653.5857   1424.27246     700.7800     653.5857
   1424.25720     699.5986     654.2554   1424.25720     699.5986     654.2554
   1424.24194     699.8661     653.8288   1424.24194     699.8661     653.8288
   1424.22668     699.8994     655.2635   1424.22668     699.8994     655.2635
   1424.21143     699.3755     654.8184   1424.21143     699.3755     654.8184
   1424.19617     701.0500     653.8288   1424.19617     701.0500     653.8288
   1424.18091     699.1957     655.3215   1424.18091     699.1957     655.3215
   1424.16565     699.3323     654.7098   1424.16565     699.3323     654.7098
