#     FILENAME=!Skynet_57528_lach-cc-214_20623_21045.cyb.fits
#     BASENAME=Skynet_57528_lach-cc-214_20623_21045
#     SRC_NAME=lach-cc-214
#     OBSERVER=ccmadison16_9505
#     DATE_OBS=2016-05-20T20:06:50.500
#        OBSID=20623
#      SCANNUM=21045
#          MJD=57528.8391
#          UTC=72500
#     SCANTYPE=track
#     DATAMODE=HIRES
#     TUNEFREQ=1420.0000
# Actual_FREQ1=1420.0000
# Actual_FREQ2=1420.0000
#    LO1Tuning=6870.000
#     RFFILTER=1355_1435
#        OBSBW=-15.6250
#        NCHAN=1024 
#        FOCUS=37.0709
#           RA=06:53:24.66
#          DEC=-00:57:03.84
#      RA(hrs)=6.890200
#     DEC(deg)=-0.951100
#    AZIM(deg)=175.106
#    ELEV(deg)=50.364
#     IFattens=10.00, 9.00
#      WARNING=None
#    TCAL_XL1=7.9635
#    TCAL_YR1=9.1340
#    TCAL_XL2=7.9635
#    TCAL_YR2=9.1340
#     TRX_XL1=11.7060
#     TRX_YR1=11.7060
#     TRX_XL2=11.7060
#     TRX_YR2=11.7060
#        TAVE=1.0000
#Freq1(MHz)          XL1          YR1  Freq2(MHz)          XL2          YR2 

   1427.81250     354.1852     259.1579   1427.81250     354.1852     259.1579
   1427.79724     354.5199     260.0346   1427.79724     354.5199     260.0346
   1427.78198     355.3062     260.7367   1427.78198     355.3062     260.7367
   1427.76672     355.6166     260.9915   1427.76672     355.6166     260.9915
   1427.75146     356.1974     262.1289   1427.75146     356.1974     262.1289
   1427.73621     357.1781     262.4556   1427.73621     357.1781     262.4556
   1427.72095     358.1143     263.3950   1427.72095     358.1143     263.3950
   1427.70569     358.8953     263.8291   1427.70569     358.8953     263.8291
   1427.69043     360.4034     264.5139   1427.69043     360.4034     264.5139
   1427.67517     361.2273     265.6506   1427.67517     361.2273     265.6506
   1427.65991     361.8333     266.1611   1427.65991     361.8333     266.1611
   1427.64465     362.6097     267.6146   1427.64465     362.6097     267.6146
   1427.62939     364.1865     268.9434   1427.62939     364.1865     268.9434
   1427.61414     365.3970     269.2091   1427.61414     365.3970     269.2091
   1427.59888     367.0141     270.0551   1427.59888     367.0141     270.0551
   1427.58362     368.6039     271.6650   1427.58362     368.6039     271.6650
   1427.56836     369.2488     272.6792   1427.56836     369.2488     272.6792
   1427.55310     370.8076     273.9796   1427.55310     370.8076     273.9796
   1427.53784     372.1148     275.1524   1427.53784     372.1148     275.1524
   1427.52258     374.0494     275.8802   1427.52258     374.0494     275.8802
   1427.50732     375.8736     277.4607   1427.50732     375.8736     277.4607
   1427.49207     377.0917     278.8548   1427.49207     377.0917     278.8548
   1427.47681     378.1928     280.0842   1427.47681     378.1928     280.0842
   1427.46155     379.7255     281.2956   1427.46155     379.7255     281.2956
   1427.44629     381.6059     282.7372   1427.44629     381.6059     282.7372
   1427.43103     383.5977     283.9840   1427.43103     383.5977     283.9840
   1427.41577     385.6976     285.8088   1427.41577     385.6976     285.8088
   1427.40051     386.6098     286.8353   1427.40051     386.6098     286.8353
   1427.38525     389.0668     288.7909   1427.38525     389.0668     288.7909
   1427.37000     390.8967     290.1189   1427.37000     390.8967     290.1189
   1427.35474     393.4149     291.7219   1427.35474     393.4149     291.7219
   1427.33948     394.4244     293.1033   1427.33948     394.4244     293.1033
   1427.32422     397.0590     294.7415   1427.32422     397.0590     294.7415
   1427.30896     398.7273     296.5827   1427.30896     398.7273     296.5827
   1427.29370     401.4738     298.4614   1427.29370     401.4738     298.4614
   1427.27844     402.2648     300.1463   1427.27844     402.2648     300.1463
   1427.26318     404.6446     301.7242   1427.26318     404.6446     301.7242
   1427.24792     406.9779     303.8639   1427.24792     406.9779     303.8639
   1427.23267     409.2518     305.8361   1427.23267     409.2518     305.8361
   1427.21741     411.6865     307.5142   1427.21741     411.6865     307.5142
   1427.20215     414.3398     309.2078   1427.20215     414.3398     309.2078
   1427.18689     415.9923     311.2823   1427.18689     415.9923     311.2823
   1427.17163     418.9413     313.1638   1427.17163     418.9413     313.1638
   1427.15637     420.4644     315.4748   1427.15637     420.4644     315.4748
   1427.14111     423.5648     316.8517   1427.14111     423.5648     316.8517
   1427.12585     425.7102     319.4647   1427.12585     425.7102     319.4647
   1427.11060     427.3518     321.2243   1427.11060     427.3518     321.2243
   1427.09534     430.8162     322.9677   1427.09534     430.8162     322.9677
   1427.08008     433.1802     325.3066   1427.08008     433.1802     325.3066
   1427.06482     434.5432     326.8928   1427.06482     434.5432     326.8928
   1427.04956     438.4594     329.5119   1427.04956     438.4594     329.5119
   1427.03430     440.0643     331.6784   1427.03430     440.0643     331.6784
   1427.01904     443.1889     333.8064   1427.01904     443.1889     333.8064
   1427.00378     445.3407     335.8777   1427.00378     445.3407     335.8777
   1426.98853     447.9255     337.9451   1426.98853     447.9255     337.9451
   1426.97327     450.1950     340.3601   1426.97327     450.1950     340.3601
   1426.95801     453.6834     343.1103   1426.95801     453.6834     343.1103
   1426.94275     456.1680     344.4992   1426.94275     456.1680     344.4992
   1426.92749     458.1430     347.7258   1426.92749     458.1430     347.7258
   1426.91223     461.0821     349.0596   1426.91223     461.0821     349.0596
   1426.89697     463.6463     352.3712   1426.89697     463.6463     352.3712
   1426.88171     466.9837     354.3609   1426.88171     466.9837     354.3609
   1426.86646     469.7868     356.1854   1426.86646     469.7868     356.1854
   1426.85120     472.1389     358.2102   1426.85120     472.1389     358.2102
   1426.83594     475.2954     360.8673   1426.83594     475.2954     360.8673
   1426.82068     476.8063     364.3414   1426.82068     476.8063     364.3414
   1426.80542     478.9257     366.3813   1426.80542     478.9257     366.3813
   1426.79016     484.3486     368.7211   1426.79016     484.3486     368.7211
   1426.77490     485.7554     370.8206   1426.77490     485.7554     370.8206
   1426.75964     489.0978     373.0228   1426.75964     489.0978     373.0228
   1426.74438     490.7015     375.6102   1426.74438     490.7015     375.6102
   1426.72913     494.5907     377.8278   1426.72913     494.5907     377.8278
   1426.71387     496.1079     380.4602   1426.71387     496.1079     380.4602
   1426.69861     499.1571     383.3924   1426.69861     499.1571     383.3924
   1426.68335     501.8292     385.4569   1426.68335     501.8292     385.4569
   1426.66809     504.3966     388.3494   1426.66809     504.3966     388.3494
   1426.65283     507.3617     391.3977   1426.65283     507.3617     391.3977
   1426.63757     511.0850     392.8081   1426.63757     511.0850     392.8081
   1426.62231     513.5268     396.3083   1426.62231     513.5268     396.3083
   1426.60706     515.2937     397.2126   1426.60706     515.2937     397.2126
   1426.59180     517.9773     400.4727   1426.59180     517.9773     400.4727
   1426.57654     520.6926     402.4731   1426.57654     520.6926     402.4731
   1426.56128     523.7172     405.5478   1426.56128     523.7172     405.5478
   1426.54602     527.0374     408.2496   1426.54602     527.0374     408.2496
   1426.53076     529.6486     410.4781   1426.53076     529.6486     410.4781
   1426.51550     531.9266     412.7200   1426.51550     531.9266     412.7200
   1426.50024     534.5310     415.5830   1426.50024     534.5310     415.5830
   1426.48499     537.4354     418.1420   1426.48499     537.4354     418.1420
   1426.46973     539.3491     421.7843   1426.46973     539.3491     421.7843
   1426.45447     542.6495     422.1626   1426.45447     542.6495     422.1626
   1426.43921     545.6252     425.1105   1426.43921     545.6252     425.1105
   1426.42395     548.5682     428.1920   1426.42395     548.5682     428.1920
   1426.40869     550.6553     429.8235   1426.40869     550.6553     429.8235
   1426.39343     553.2778     432.7226   1426.39343     553.2778     432.7226
   1426.37817     555.6042     435.4636   1426.37817     555.6042     435.4636
   1426.36292     557.6860     437.9365   1426.36292     557.6860     437.9365
   1426.34766     561.4687     440.6648   1426.34766     561.4687     440.6648
   1426.33240     563.3589     442.9658   1426.33240     563.3589     442.9658
   1426.31714     565.4452     445.4917   1426.31714     565.4452     445.4917
   1426.30188     568.2984     447.4433   1426.30188     568.2984     447.4433
   1426.28662     570.7677     450.0229   1426.28662     570.7677     450.0229
   1426.27136     572.8647     452.6097   1426.27136     572.8647     452.6097
   1426.25610     575.9473     455.6564   1426.25610     575.9473     455.6564
   1426.24084     577.9311     456.4684   1426.24084     577.9311     456.4684
   1426.22559     580.5956     459.8784   1426.22559     580.5956     459.8784
   1426.21033     583.7073     461.6790   1426.21033     583.7073     461.6790
   1426.19507     585.0632     464.5742   1426.19507     585.0632     464.5742
   1426.17981     587.7548     466.8708   1426.17981     587.7548     466.8708
   1426.16455     590.7876     470.1620   1426.16455     590.7876     470.1620
   1426.14929     591.7780     471.9897   1426.14929     591.7780     471.9897
   1426.13403     594.4641     473.7991   1426.13403     594.4641     473.7991
   1426.11877     596.8243     476.9508   1426.11877     596.8243     476.9508
   1426.10352     599.5172     478.5238   1426.10352     599.5172     478.5238
   1426.08826     601.8191     480.5953   1426.08826     601.8191     480.5953
   1426.07300     603.2025     483.0942   1426.07300     603.2025     483.0942
   1426.05774     606.0706     485.7312   1426.05774     606.0706     485.7312
   1426.04248     607.4218     487.4061   1426.04248     607.4218     487.4061
   1426.02722     609.7820     490.3131   1426.02722     609.7820     490.3131
   1426.01196     612.4326     492.1182   1426.01196     612.4326     492.1182
   1425.99670     613.9781     495.1250   1425.99670     613.9781     495.1250
   1425.98145     616.2709     497.5989   1425.98145     616.2709     497.5989
   1425.96619     618.0582     499.4574   1425.96619     618.0582     499.4574
   1425.95093     620.1083     500.9484   1425.95093     620.1083     500.9484
   1425.93567     621.3454     502.9371   1425.93567     621.3454     502.9371
   1425.92041     624.9092     504.9444   1425.92041     624.9092     504.9444
   1425.90515     625.1884     508.2288   1425.90515     625.1884     508.2288
   1425.88989     628.3567     509.6988   1425.88989     628.3567     509.6988
   1425.87463     629.4724     512.9925   1425.87463     629.4724     512.9925
   1425.85938     632.2829     514.1263   1425.85938     632.2829     514.1263
   1425.84412     632.7838     516.0748   1425.84412     632.7838     516.0748
   1425.82886     635.4332     518.5974   1425.82886     635.4332     518.5974
   1425.81360     636.5433     520.8016   1425.81360     636.5433     520.8016
   1425.79834     639.5263     522.0715   1425.79834     639.5263     522.0715
   1425.78308     640.4711     524.5894   1425.78308     640.4711     524.5894
   1425.76782     641.6082     526.6498   1425.76782     641.6082     526.6498
   1425.75256     644.0636     528.8843   1425.75256     644.0636     528.8843
   1425.73730     645.1620     531.3674   1425.73730     645.1620     531.3674
   1425.72205     646.3069     532.0345   1425.72205     646.3069     532.0345
   1425.70679     647.7480     533.9686   1425.70679     647.7480     533.9686
   1425.69153     650.6658     535.9382   1425.69153     650.6658     535.9382
   1425.67627     651.3323     538.5753   1425.67627     651.3323     538.5753
   1425.66101     653.1029     540.5032   1425.66101     653.1029     540.5032
   1425.64575     654.8696     541.5486   1425.64575     654.8696     541.5486
   1425.63049     656.2942     544.1712   1425.63049     656.2942     544.1712
   1425.61523     656.4287     545.7460   1425.61523     656.4287     545.7460
   1425.59998     657.9326     547.4484   1425.59998     657.9326     547.4484
   1425.58472     659.7246     550.0330   1425.58472     659.7246     550.0330
   1425.56946     661.5392     551.0158   1425.56946     661.5392     551.0158
   1425.55420     661.9704     552.9478   1425.55420     661.9704     552.9478
   1425.53894     664.2578     555.7327   1425.53894     664.2578     555.7327
   1425.52368     665.0772     556.3110   1425.52368     665.0772     556.3110
   1425.50842     664.9989     557.6125   1425.50842     664.9989     557.6125
   1425.49316     667.1352     559.0179   1425.49316     667.1352     559.0179
   1425.47791     667.9680     561.7959   1425.47791     667.9680     561.7959
   1425.46265     669.2357     563.1889   1425.46265     669.2357     563.1889
   1425.44739     670.8431     564.4733   1425.44739     670.8431     564.4733
   1425.43213     671.4213     566.3823   1425.43213     671.4213     566.3823
   1425.41687     674.6130     569.6901   1425.41687     674.6130     569.6901
   1425.40161     673.4639     569.9104   1425.40161     673.4639     569.9104
   1425.38635     674.8044     571.9405   1425.38635     674.8044     571.9405
   1425.37109     675.1384     572.3211   1425.37109     675.1384     572.3211
   1425.35583     675.5646     574.3298   1425.35583     675.5646     574.3298
   1425.34058     677.2725     575.1215   1425.34058     677.2725     575.1215
   1425.32532     679.1663     577.5886   1425.32532     679.1663     577.5886
   1425.31006     679.0292     578.7540   1425.31006     679.0292     578.7540
   1425.29480     679.6679     579.7594   1425.29480     679.6679     579.7594
   1425.27954     681.6647     581.5255   1425.27954     681.6647     581.5255
   1425.26428     682.6982     582.6522   1425.26428     682.6982     582.6522
   1425.24902     682.6884     584.6699   1425.24902     682.6884     584.6699
   1425.23376     683.3703     585.8134   1425.23376     683.3703     585.8134
   1425.21851     684.2441     586.5532   1425.21851     684.2441     586.5532
   1425.20325     684.6637     588.7781   1425.20325     684.6637     588.7781
   1425.18799     685.4649     589.5325   1425.18799     685.4649     589.5325
   1425.17273     686.4805     591.0079   1425.17273     686.4805     591.0079
   1425.15747     687.5477     592.1334   1425.15747     687.5477     592.1334
   1425.14221     687.0887     592.7424   1425.14221     687.0887     592.7424
   1425.12695     688.3480     594.3207   1425.12695     688.3480     594.3207
   1425.11169     688.1365     596.0624   1425.11169     688.1365     596.0624
   1425.09644     688.3159     596.6985   1425.09644     688.3159     596.6985
   1425.08118     690.5037     598.1064   1425.08118     690.5037     598.1064
   1425.06592     690.6290     599.2653   1425.06592     690.6290     599.2653
   1425.05066     690.9060     600.1401   1425.05066     690.9060     600.1401
   1425.03540     689.9505     601.1939   1425.03540     689.9505     601.1939
   1425.02014     691.7309     602.0756   1425.02014     691.7309     602.0756
   1425.00488     691.4515     603.6113   1425.00488     691.4515     603.6113
   1424.98962     692.5639     604.7523   1424.98962     692.5639     604.7523
   1424.97437     692.5597     605.7087   1424.97437     692.5597     605.7087
   1424.95911     692.8517     605.7367   1424.95911     692.8517     605.7367
   1424.94385     693.2552     608.2565   1424.94385     693.2552     608.2565
   1424.92859     692.4477     608.3056   1424.92859     692.4477     608.3056
   1424.91333     694.7886     609.3969   1424.91333     694.7886     609.3969
   1424.89807     695.1598     610.4435   1424.89807     695.1598     610.4435
   1424.88281     694.0386     611.1954   1424.88281     694.0386     611.1954
   1424.86755     695.0588     612.3593   1424.86755     695.0588     612.3593
   1424.85229     695.5471     613.4868   1424.85229     695.5471     613.4868
   1424.83704     694.5009     615.1039   1424.83704     694.5009     615.1039
   1424.82178     695.4631     616.0345   1424.82178     695.4631     616.0345
   1424.80652     695.5601     615.1443   1424.80652     695.5601     615.1443
   1424.79126     695.8846     617.1008   1424.79126     695.8846     617.1008
   1424.77600     695.2166     617.2845   1424.77600     695.2166     617.2845
   1424.76074     695.6452     617.5938   1424.76074     695.6452     617.5938
   1424.74548     696.0704     617.9022   1424.74548     696.0704     617.9022
   1424.73022     697.2114     620.1735   1424.73022     697.2114     620.1735
   1424.71497     696.3317     619.6797   1424.71497     696.3317     619.6797
   1424.69971     697.8269     621.0030   1424.69971     697.8269     621.0030
   1424.68445     697.5384     621.8167   1424.68445     697.5384     621.8167
   1424.66919     697.6938     622.3975   1424.66919     697.6938     622.3975
   1424.65393     697.6228     623.2683   1424.65393     697.6228     623.2683
   1424.63867     697.1526     622.5609   1424.63867     697.1526     622.5609
   1424.62341     696.9111     624.7548   1424.62341     696.9111     624.7548
   1424.60815     696.1240     624.9516   1424.60815     696.1240     624.9516
   1424.59290     696.9337     625.2827   1424.59290     696.9337     625.2827
   1424.57764     696.7648     626.3386   1424.57764     696.7648     626.3386
   1424.56238     696.9791     626.2325   1424.56238     696.9791     626.2325
   1424.54712     697.7803     627.2673   1424.54712     697.7803     627.2673
   1424.53186     697.7454     627.2250   1424.53186     697.7454     627.2250
   1424.51660     695.4306     627.6921   1424.51660     695.4306     627.6921
   1424.50134     697.0216     627.9929   1424.50134     697.0216     627.9929
   1424.48608     696.7709     628.6216   1424.48608     696.7709     628.6216
   1424.47083     697.5048     629.6360   1424.47083     697.5048     629.6360
   1424.45557     696.9429     630.6217   1424.45557     696.9429     630.6217
   1424.44031     697.4863     630.8937   1424.44031     697.4863     630.8937
   1424.42505     697.8152     629.7925   1424.42505     697.8152     629.7925
   1424.40979     696.5644     631.2454   1424.40979     696.5644     631.2454
   1424.39453     696.1204     631.9102   1424.39453     696.1204     631.9102
   1424.37927     697.1642     632.3362   1424.37927     697.1642     632.3362
   1424.36401     696.5345     632.2399   1424.36401     696.5345     632.2399
   1424.34875     696.7969     632.1379   1424.34875     696.7969     632.1379
   1424.33350     697.2809     631.9292   1424.33350     697.2809     631.9292
   1424.31824     695.0429     631.5571   1424.31824     695.0429     631.5571
   1424.30298     696.1482     633.1819   1424.30298     696.1482     633.1819
   1424.28772     696.4584     633.9116   1424.28772     696.4584     633.9116
   1424.27246     696.8419     633.1808   1424.27246     696.8419     633.1808
   1424.25720     695.1658     633.9294   1424.25720     695.1658     633.9294
   1424.24194     694.6094     633.4573   1424.24194     694.6094     633.4573
   1424.22668     695.7668     633.6780   1424.22668     695.7668     633.6780
   1424.21143     694.8418     633.8371   1424.21143     694.8418     633.8371
   1424.19617     694.2877     635.3857   1424.19617     694.2877     635.3857
   1424.18091     694.7853     635.7028   1424.18091     694.7853     635.7028
   1424.16565     695.4267     635.1895   1424.16565     695.4267     635.1895
