#     FILENAME=!Skynet_57528_lach-hhg-152_20500_20976.cyb.fits
#     BASENAME=Skynet_57528_lach-hhg-152_20500_20976
#     SRC_NAME=lach-hhg-152
#     OBSERVER=hhgmadison16_9500
#     DATE_OBS=2016-05-20T17:41:32.870
#        OBSID=20500
#      SCANNUM=20976
#          MJD=57528.7382
#          UTC=63782
#     SCANTYPE=track
#     DATAMODE=HIRES
#     TUNEFREQ=1420.0000
# Actual_FREQ1=1420.0000
# Actual_FREQ2=1420.0000
#    LO1Tuning=6870.000
#     RFFILTER=1355_1435
#        OBSBW=-15.6250
#        NCHAN=1024 
#        FOCUS=37.0709
#           RA=04:13:57.44
#          DEC=51:04:03.71
#      RA(hrs)=4.232600
#     DEC(deg)=51.067700
#    AZIM(deg)=357.933
#    ELEV(deg)=77.250
#     IFattens=10.00, 10.00
#      WARNING=None
#    TCAL_XL1=7.9635
#    TCAL_YR1=9.1340
#    TCAL_XL2=7.9635
#    TCAL_YR2=9.1340
#     TRX_XL1=11.7060
#     TRX_YR1=11.7060
#     TRX_XL2=11.7060
#     TRX_YR2=11.7060
#        TAVE=1.0000
#Freq1(MHz)          XL1          YR1  Freq2(MHz)          XL2          YR2 

   1427.81250     302.0190     339.4244   1427.81250     302.0190     339.4244
   1427.79724     302.3351     340.3739   1427.79724     302.3351     340.3739
   1427.78198     302.8763     342.0173   1427.78198     302.8763     342.0173
   1427.76672     303.5384     343.8124   1427.76672     303.5384     343.8124
   1427.75146     304.5181     345.0702   1427.75146     304.5181     345.0702
   1427.73621     304.6958     347.2078   1427.73621     304.6958     347.2078
   1427.72095     306.1854     348.1208   1427.72095     306.1854     348.1208
   1427.70569     306.9318     349.8251   1427.70569     306.9318     349.8251
   1427.69043     307.0449     351.9272   1427.69043     307.0449     351.9272
   1427.67517     308.2002     353.1006   1427.67517     308.2002     353.1006
   1427.65991     309.1010     355.1654   1427.65991     309.1010     355.1654
   1427.64465     309.9929     356.8181   1427.64465     309.9929     356.8181
   1427.62939     310.6407     358.4818   1427.62939     310.6407     358.4818
   1427.61414     311.7769     361.0060   1427.61414     311.7769     361.0060
   1427.59888     312.9649     362.3376   1427.59888     312.9649     362.3376
   1427.58362     313.8428     364.1634   1427.58362     313.8428     364.1634
   1427.56836     315.4079     366.0881   1427.56836     315.4079     366.0881
   1427.55310     316.9344     368.6984   1427.55310     316.9344     368.6984
   1427.53784     317.6329     370.7958   1427.53784     317.6329     370.7958
   1427.52258     318.2879     372.5179   1427.52258     318.2879     372.5179
   1427.50732     320.4592     374.0773   1427.50732     320.4592     374.0773
   1427.49207     321.6457     376.4821   1427.49207     321.6457     376.4821
   1427.47681     322.4350     378.6629   1427.47681     322.4350     378.6629
   1427.46155     324.0420     381.2790   1427.46155     324.0420     381.2790
   1427.44629     326.2191     383.1418   1427.44629     326.2191     383.1418
   1427.43103     326.9370     385.1402   1427.43103     326.9370     385.1402
   1427.41577     328.7010     388.1922   1427.41577     328.7010     388.1922
   1427.40051     330.5242     390.0432   1427.40051     330.5242     390.0432
   1427.38525     331.8724     392.3939   1427.38525     331.8724     392.3939
   1427.37000     333.6540     394.4762   1427.37000     333.6540     394.4762
   1427.35474     335.3523     396.4875   1427.35474     335.3523     396.4875
   1427.33948     337.4294     398.6561   1427.33948     337.4294     398.6561
   1427.32422     338.7055     401.1361   1427.32422     338.7055     401.1361
   1427.30896     340.2293     403.2179   1427.30896     340.2293     403.2179
   1427.29370     342.6750     405.7050   1427.29370     342.6750     405.7050
   1427.27844     344.1387     408.2688   1427.27844     344.1387     408.2688
   1427.26318     346.2719     410.2336   1427.26318     346.2719     410.2336
   1427.24792     347.8947     412.5289   1427.24792     347.8947     412.5289
   1427.23267     349.2563     415.4174   1427.23267     349.2563     415.4174
   1427.21741     351.7538     417.4574   1427.21741     351.7538     417.4574
   1427.20215     353.7272     420.4962   1427.20215     353.7272     420.4962
   1427.18689     355.4890     422.7037   1427.18689     355.4890     422.7037
   1427.17163     357.4756     425.2351   1427.17163     357.4756     425.2351
   1427.15637     359.9319     427.2567   1427.15637     359.9319     427.2567
   1427.14111     361.3772     429.5517   1427.14111     361.3772     429.5517
   1427.12585     363.6668     433.0082   1427.12585     363.6668     433.0082
   1427.11060     366.2327     434.3380   1427.11060     366.2327     434.3380
   1427.09534     367.8016     437.7725   1427.09534     367.8016     437.7725
   1427.08008     370.2364     439.7576   1427.08008     370.2364     439.7576
   1427.06482     372.1645     442.3050   1427.06482     372.1645     442.3050
   1427.04956     374.7658     444.9576   1427.04956     374.7658     444.9576
   1427.03430     376.8187     447.6508   1427.03430     376.8187     447.6508
   1427.01904     379.2790     449.4694   1427.01904     379.2790     449.4694
   1427.00378     380.9668     452.5290   1427.00378     380.9668     452.5290
   1426.98853     383.8407     455.0892   1426.98853     383.8407     455.0892
   1426.97327     385.7921     456.4968   1426.97327     385.7921     456.4968
   1426.95801     388.3477     459.7018   1426.95801     388.3477     459.7018
   1426.94275     390.2976     461.2180   1426.94275     390.2976     461.2180
   1426.92749     393.3979     464.1812   1426.92749     393.3979     464.1812
   1426.91223     395.2670     467.1317   1426.91223     395.2670     467.1317
   1426.89697     397.7650     468.8972   1426.89697     397.7650     468.8972
   1426.88171     400.3041     471.9070   1426.88171     400.3041     471.9070
   1426.86646     402.1537     473.7005   1426.86646     402.1537     473.7005
   1426.85120     405.1287     475.3149   1426.85120     405.1287     475.3149
   1426.83594     407.0658     478.9783   1426.83594     407.0658     478.9783
   1426.82068     409.8492     480.7274   1426.82068     409.8492     480.7274
   1426.80542     411.3553     482.2811   1426.80542     411.3553     482.2811
   1426.79016     413.5338     485.6042   1426.79016     413.5338     485.6042
   1426.77490     416.4214     487.9608   1426.77490     416.4214     487.9608
   1426.75964     419.1906     490.0880   1426.75964     419.1906     490.0880
   1426.74438     422.2741     491.9695   1426.74438     422.2741     491.9695
   1426.72913     424.2751     494.3976   1426.72913     424.2751     494.3976
   1426.71387     427.2739     496.3267   1426.71387     427.2739     496.3267
   1426.69861     429.0199     498.2977   1426.69861     429.0199     498.2977
   1426.68335     431.4636     500.6204   1426.68335     431.4636     500.6204
   1426.66809     434.3917     502.5691   1426.66809     434.3917     502.5691
   1426.65283     437.2166     505.2280   1426.65283     437.2166     505.2280
   1426.63757     439.4982     506.8211   1426.63757     439.4982     506.8211
   1426.62231     441.6713     512.6967   1426.62231     441.6713     512.6967
   1426.60706     444.2240     512.5809   1426.60706     444.2240     512.5809
   1426.59180     447.0117     513.6796   1426.59180     447.0117     513.6796
   1426.57654     449.8271     515.6176   1426.57654     449.8271     515.6176
   1426.56128     452.0670     517.5605   1426.56128     452.0670     517.5605
   1426.54602     454.2215     520.6612   1426.54602     454.2215     520.6612
   1426.53076     456.8186     521.3207   1426.53076     456.8186     521.3207
   1426.51550     458.9794     524.4512   1426.51550     458.9794     524.4512
   1426.50024     461.8438     525.8211   1426.50024     461.8438     525.8211
   1426.48499     465.0346     527.6546   1426.48499     465.0346     527.6546
   1426.46973     466.8079     530.5621   1426.46973     466.8079     530.5621
   1426.45447     468.7836     531.9652   1426.45447     468.7836     531.9652
   1426.43921     471.6383     533.6212   1426.43921     471.6383     533.6212
   1426.42395     473.0829     536.1586   1426.42395     473.0829     536.1586
   1426.40869     476.5371     538.1241   1426.40869     476.5371     538.1241
   1426.39343     478.2654     539.2396   1426.39343     478.2654     539.2396
   1426.37817     481.6341     540.8136   1426.37817     481.6341     540.8136
   1426.36292     483.6611     542.4685   1426.36292     483.6611     542.4685
   1426.34766     485.5014     544.6011   1426.34766     485.5014     544.6011
   1426.33240     488.6517     545.7223   1426.33240     488.6517     545.7223
   1426.31714     490.0497     548.0682   1426.31714     490.0497     548.0682
   1426.30188     493.1762     549.5753   1426.30188     493.1762     549.5753
   1426.28662     494.9430     551.0275   1426.28662     494.9430     551.0275
   1426.27136     497.8202     552.6830   1426.27136     497.8202     552.6830
   1426.25610     499.8738     554.4426   1426.25610     499.8738     554.4426
   1426.24084     502.2487     556.3842   1426.24084     502.2487     556.3842
   1426.22559     504.5186     558.2084   1426.22559     504.5186     558.2084
   1426.21033     506.8103     559.5423   1426.21033     506.8103     559.5423
   1426.19507     508.8123     560.9803   1426.19507     508.8123     560.9803
   1426.17981     510.9760     561.7406   1426.17981     510.9760     561.7406
   1426.16455     513.7119     565.2361   1426.16455     513.7119     565.2361
   1426.14929     516.7052     564.8042   1426.14929     516.7052     564.8042
   1426.13403     518.2940     566.8185   1426.13403     518.2940     566.8185
   1426.11877     519.0682     568.2418   1426.11877     519.0682     568.2418
   1426.10352     522.3667     570.3357   1426.10352     522.3667     570.3357
   1426.08826     524.3174     571.4049   1426.08826     524.3174     571.4049
   1426.07300     525.6011     572.5383   1426.07300     525.6011     572.5383
   1426.05774     529.5325     572.7061   1426.05774     529.5325     572.7061
   1426.04248     530.2291     575.9227   1426.04248     530.2291     575.9227
   1426.02722     532.4567     576.7075   1426.02722     532.4567     576.7075
   1426.01196     534.5751     577.1200   1426.01196     534.5751     577.1200
   1425.99670     535.9392     579.1340   1425.99670     535.9392     579.1340
   1425.98145     539.0799     580.3163   1425.98145     539.0799     580.3163
   1425.96619     541.1682     580.8212   1425.96619     541.1682     580.8212
   1425.95093     542.3611     583.3414   1425.95093     542.3611     583.3414
   1425.93567     545.3672     583.6551   1425.93567     545.3672     583.6551
   1425.92041     546.4775     585.2394   1425.92041     546.4775     585.2394
   1425.90515     547.9513     585.9815   1425.90515     547.9513     585.9815
   1425.88989     550.6638     586.4050   1425.88989     550.6638     586.4050
   1425.87463     552.6411     588.3943   1425.87463     552.6411     588.3943
   1425.85938     552.7225     588.8440   1425.85938     552.7225     588.8440
   1425.84412     555.8651     589.9309   1425.84412     555.8651     589.9309
   1425.82886     557.7197     591.5853   1425.82886     557.7197     591.5853
   1425.81360     558.4287     591.4487   1425.81360     558.4287     591.4487
   1425.79834     561.3442     593.7556   1425.79834     561.3442     593.7556
   1425.78308     562.8712     592.1539   1425.78308     562.8712     592.1539
   1425.76782     564.8203     594.4023   1425.76782     564.8203     594.4023
   1425.75256     565.2390     595.4247   1425.75256     565.2390     595.4247
   1425.73730     567.2109     595.8557   1425.73730     567.2109     595.8557
   1425.72205     569.1365     597.7047   1425.72205     569.1365     597.7047
   1425.70679     570.6171     598.1327   1425.70679     570.6171     598.1327
   1425.69153     571.8652     598.4025   1425.69153     571.8652     598.4025
   1425.67627     573.7354     599.9232   1425.67627     573.7354     599.9232
   1425.66101     574.9927     600.2097   1425.66101     574.9927     600.2097
   1425.64575     575.8189     601.7361   1425.64575     575.8189     601.7361
   1425.63049     578.1557     602.6391   1425.63049     578.1557     602.6391
   1425.61523     578.0822     603.4368   1425.61523     578.0822     603.4368
   1425.59998     581.1215     602.9062   1425.59998     581.1215     602.9062
   1425.58472     582.0384     604.6524   1425.58472     582.0384     604.6524
   1425.56946     582.9922     603.9552   1425.56946     582.9922     603.9552
   1425.55420     583.8655     605.2828   1425.55420     583.8655     605.2828
   1425.53894     585.6781     606.3202   1425.53894     585.6781     606.3202
   1425.52368     587.1821     607.2617   1425.52368     587.1821     607.2617
   1425.50842     588.3134     607.5296   1425.50842     588.3134     607.5296
   1425.49316     589.2710     609.0493   1425.49316     589.2710     609.0493
   1425.47791     590.4190     608.8961   1425.47791     590.4190     608.8961
   1425.46265     591.2698     609.0481   1425.46265     591.2698     609.0481
   1425.44739     592.4799     608.8715   1425.44739     592.4799     608.8715
   1425.43213     593.4875     610.7050   1425.43213     593.4875     610.7050
   1425.41687     595.0853     610.8577   1425.41687     595.0853     610.8577
   1425.40161     596.0939     610.4272   1425.40161     596.0939     610.4272
   1425.38635     597.0773     611.7230   1425.38635     597.0773     611.7230
   1425.37109     597.3359     611.1596   1425.37109     597.3359     611.1596
   1425.35583     598.7151     612.3044   1425.35583     598.7151     612.3044
   1425.34058     600.0225     614.8124   1425.34058     600.0225     614.8124
   1425.32532     600.4160     613.2781   1425.32532     600.4160     613.2781
   1425.31006     601.6448     613.0261   1425.31006     601.6448     613.0261
   1425.29480     602.4771     613.7984   1425.29480     602.4771     613.7984
   1425.27954     603.2789     614.4592   1425.27954     603.2789     614.4592
   1425.26428     603.9500     614.8328   1425.26428     603.9500     614.8328
   1425.24902     604.3564     615.6399   1425.24902     604.3564     615.6399
   1425.23376     605.4855     614.7117   1425.23376     605.4855     614.7117
   1425.21851     606.2106     614.6588   1425.21851     606.2106     614.6588
   1425.20325     606.0284     614.6469   1425.20325     606.0284     614.6469
   1425.18799     607.4949     615.3810   1425.18799     607.4949     615.3810
   1425.17273     608.7810     616.2555   1425.17273     608.7810     616.2555
   1425.15747     608.9841     617.4058   1425.15747     608.9841     617.4058
   1425.14221     609.5367     617.0801   1425.14221     609.5367     617.0801
   1425.12695     610.3984     617.7448   1425.12695     610.3984     617.7448
   1425.11169     611.1042     617.1481   1425.11169     611.1042     617.1481
   1425.09644     611.2852     617.1911   1425.09644     611.2852     617.1911
   1425.08118     611.7648     618.3683   1425.08118     611.7648     618.3683
   1425.06592     612.1634     617.2965   1425.06592     612.1634     617.2965
   1425.05066     612.1565     617.4467   1425.05066     612.1565     617.4467
   1425.03540     612.6074     618.9616   1425.03540     612.6074     618.9616
   1425.02014     613.0377     619.3357   1425.02014     613.0377     619.3357
   1425.00488     613.6711     619.3306   1425.00488     613.6711     619.3306
   1424.98962     613.9197     617.8347   1424.98962     613.9197     617.8347
   1424.97437     613.4278     618.5723   1424.97437     613.4278     618.5723
   1424.95911     614.7797     617.9859   1424.95911     614.7797     617.9859
   1424.94385     615.2667     618.6778   1424.94385     615.2667     618.6778
   1424.92859     615.3028     619.7249   1424.92859     615.3028     619.7249
   1424.91333     616.2534     619.2874   1424.91333     616.2534     619.2874
   1424.89807     616.9929     618.4691   1424.89807     616.9929     618.4691
   1424.88281     615.3088     618.6812   1424.88281     615.3088     618.6812
   1424.86755     617.1442     619.4792   1424.86755     617.1442     619.4792
   1424.85229     616.6408     618.7471   1424.85229     616.6408     618.7471
   1424.83704     616.8194     619.5669   1424.83704     616.8194     619.5669
   1424.82178     616.8430     619.0775   1424.82178     616.8430     619.0775
   1424.80652     616.3839     619.4528   1424.80652     616.3839     619.4528
   1424.79126     617.0968     619.1033   1424.79126     617.0968     619.1033
   1424.77600     616.7291     618.5466   1424.77600     616.7291     618.5466
   1424.76074     617.1851     618.6500   1424.76074     617.1851     618.6500
   1424.74548     617.6495     618.3124   1424.74548     617.6495     618.3124
   1424.73022     618.0712     619.0997   1424.73022     618.0712     619.0997
   1424.71497     616.6506     618.2114   1424.71497     616.6506     618.2114
   1424.69971     617.3763     618.4551   1424.69971     617.3763     618.4551
   1424.68445     617.2511     619.6431   1424.68445     617.2511     619.6431
   1424.66919     617.1790     617.7101   1424.66919     617.1790     617.7101
   1424.65393     617.4038     617.6935   1424.65393     617.4038     617.6935
   1424.63867     617.8366     618.6461   1424.63867     617.8366     618.6461
   1424.62341     616.9031     617.7891   1424.62341     616.9031     617.7891
   1424.60815     616.3953     618.4751   1424.60815     616.3953     618.4751
   1424.59290     617.1703     617.1957   1424.59290     617.1703     617.1957
   1424.57764     616.6794     618.2116   1424.57764     616.6794     618.2116
   1424.56238     615.8272     617.1539   1424.56238     615.8272     617.1539
   1424.54712     616.5742     617.2652   1424.54712     616.5742     617.2652
   1424.53186     615.6108     616.8020   1424.53186     615.6108     616.8020
   1424.51660     615.4774     617.6115   1424.51660     615.4774     617.6115
   1424.50134     615.7605     617.2939   1424.50134     615.7605     617.2939
   1424.48608     615.7650     617.0009   1424.48608     615.7650     617.0009
   1424.47083     615.4289     616.7683   1424.47083     615.4289     616.7683
   1424.45557     615.4944     615.8404   1424.45557     615.4944     615.8404
   1424.44031     615.5081     616.9819   1424.44031     615.5081     616.9819
   1424.42505     614.6913     615.6591   1424.42505     614.6913     615.6591
   1424.40979     615.5809     616.2198   1424.40979     615.5809     616.2198
   1424.39453     615.4965     615.9619   1424.39453     615.4965     615.9619
   1424.37927     614.5718     614.7581   1424.37927     614.5718     614.7581
   1424.36401     614.0895     614.6842   1424.36401     614.0895     614.6842
   1424.34875     613.7869     614.8179   1424.34875     613.7869     614.8179
   1424.33350     613.0276     615.1888   1424.33350     613.0276     615.1888
   1424.31824     612.2997     615.6065   1424.31824     612.2997     615.6065
   1424.30298     613.0385     614.7210   1424.30298     613.0385     614.7210
   1424.28772     612.2098     614.7670   1424.28772     612.2098     614.7670
   1424.27246     612.1656     613.9376   1424.27246     612.1656     613.9376
   1424.25720     612.0756     613.6599   1424.25720     612.0756     613.6599
   1424.24194     612.7230     613.2139   1424.24194     612.7230     613.2139
   1424.22668     610.2549     612.9911   1424.22668     610.2549     612.9911
   1424.21143     609.7059     612.7168   1424.21143     609.7059     612.7168
   1424.19617     610.8174     613.5446   1424.19617     610.8174     613.5446
   1424.18091     610.0190     611.9405   1424.18091     610.0190     611.9405
   1424.16565     609.8157     612.5597   1424.16565     609.8157     612.5597
