#     FILENAME=!Skynet_57528_lach-cc-225_20640_21033.cyb.fits
#     BASENAME=Skynet_57528_lach-cc-225_20640_21033
#     SRC_NAME=lach-cc-225
#     OBSERVER=ccmadison16_9505
#     DATE_OBS=2016-05-20T19:42:19.680
#        OBSID=20640
#      SCANNUM=21033
#          MJD=57528.8221
#          UTC=71029
#     SCANTYPE=track
#     DATAMODE=HIRES
#     TUNEFREQ=1420.0000
# Actual_FREQ1=1420.0000
# Actual_FREQ2=1420.0000
#    LO1Tuning=6870.000
#     RFFILTER=1355_1435
#        OBSBW=-15.6250
#        NCHAN=1024 
#        FOCUS=37.0709
#           RA=07:13:41.40
#          DEC=-10:43:23.19
#      RA(hrs)=7.228200
#     DEC(deg)=-10.723100
#    AZIM(deg)=161.672
#    ELEV(deg)=38.951
#     IFattens=10.00, 9.00
#      WARNING=None
#    TCAL_XL1=7.9635
#    TCAL_YR1=9.1340
#    TCAL_XL2=7.9635
#    TCAL_YR2=9.1340
#     TRX_XL1=11.7060
#     TRX_YR1=11.7060
#     TRX_XL2=11.7060
#     TRX_YR2=11.7060
#        TAVE=1.0000
#Freq1(MHz)          XL1          YR1  Freq2(MHz)          XL2          YR2 

   1427.81250     358.3233     275.3880   1427.81250     358.3233     275.3880
   1427.79724     358.9750     276.1547   1427.79724     358.9750     276.1547
   1427.78198     359.0589     276.6427   1427.78198     359.0589     276.6427
   1427.76672     360.4091     277.0920   1427.76672     360.4091     277.0920
   1427.75146     361.5163     277.7156   1427.75146     361.5163     277.7156
   1427.73621     362.6427     278.6989   1427.73621     362.6427     278.6989
   1427.72095     363.0989     279.1852   1427.72095     363.0989     279.1852
   1427.70569     364.4785     279.9316   1427.70569     364.4785     279.9316
   1427.69043     364.8888     280.5618   1427.69043     364.8888     280.5618
   1427.67517     365.9148     281.6095   1427.67517     365.9148     281.6095
   1427.65991     367.3408     282.0268   1427.65991     367.3408     282.0268
   1427.64465     368.5689     282.6782   1427.64465     368.5689     282.6782
   1427.62939     369.9229     284.1775   1427.62939     369.9229     284.1775
   1427.61414     371.1178     284.7345   1427.61414     371.1178     284.7345
   1427.59888     372.5192     286.6988   1427.59888     372.5192     286.6988
   1427.58362     373.5264     287.3246   1427.58362     373.5264     287.3246
   1427.56836     375.5825     287.6467   1427.56836     375.5825     287.6467
   1427.55310     376.9041     288.9420   1427.55310     376.9041     288.9420
   1427.53784     378.6658     290.5670   1427.53784     378.6658     290.5670
   1427.52258     379.5703     291.2858   1427.52258     379.5703     291.2858
   1427.50732     382.2980     292.4753   1427.50732     382.2980     292.4753
   1427.49207     383.4863     293.3121   1427.49207     383.4863     293.3121
   1427.47681     384.8903     295.4745   1427.47681     384.8903     295.4745
   1427.46155     386.7385     296.1331   1427.46155     386.7385     296.1331
   1427.44629     389.1929     297.3863   1427.44629     389.1929     297.3863
   1427.43103     390.4211     299.0118   1427.43103     390.4211     299.0118
   1427.41577     392.2976     300.7224   1427.41577     392.2976     300.7224
   1427.40051     394.1665     301.5704   1427.40051     394.1665     301.5704
   1427.38525     396.0926     303.3707   1427.38525     396.0926     303.3707
   1427.37000     397.6326     305.0997   1427.37000     397.6326     305.0997
   1427.35474     400.3253     306.2535   1427.35474     400.3253     306.2535
   1427.33948     402.2646     308.4302   1427.33948     402.2646     308.4302
   1427.32422     404.5131     309.7873   1427.32422     404.5131     309.7873
   1427.30896     406.2599     311.1618   1427.30896     406.2599     311.1618
   1427.29370     408.2666     313.2979   1427.29370     408.2666     313.2979
   1427.27844     410.6903     314.8468   1427.27844     410.6903     314.8468
   1427.26318     413.8665     316.1072   1427.26318     413.8665     316.1072
   1427.24792     415.3150     318.3400   1427.24792     415.3150     318.3400
   1427.23267     417.2343     319.4880   1427.23267     417.2343     319.4880
   1427.21741     419.9461     321.5107   1427.21741     419.9461     321.5107
   1427.20215     421.8374     323.9110   1427.20215     421.8374     323.9110
   1427.18689     424.7921     325.7284   1427.18689     424.7921     325.7284
   1427.17163     427.0533     327.5798   1427.17163     427.0533     327.5798
   1427.15637     430.1121     329.4345   1427.15637     430.1121     329.4345
   1427.14111     431.8148     331.2445   1427.14111     431.8148     331.2445
   1427.12585     434.0779     333.4691   1427.12585     434.0779     333.4691
   1427.11060     437.1917     334.7021   1427.11060     437.1917     334.7021
   1427.09534     439.4281     337.3667   1427.09534     439.4281     337.3667
   1427.08008     441.9208     339.2069   1427.08008     441.9208     339.2069
   1427.06482     445.2076     341.6353   1427.06482     445.2076     341.6353
   1427.04956     447.3557     343.3322   1427.04956     447.3557     343.3322
   1427.03430     449.7859     345.9381   1427.03430     449.7859     345.9381
   1427.01904     452.2710     347.5243   1427.01904     452.2710     347.5243
   1427.00378     455.1990     349.3935   1427.00378     455.1990     349.3935
   1426.98853     458.0995     352.0741   1426.98853     458.0995     352.0741
   1426.97327     460.1259     353.8337   1426.97327     460.1259     353.8337
   1426.95801     463.4261     356.2028   1426.95801     463.4261     356.2028
   1426.94275     466.5795     358.9682   1426.94275     466.5795     358.9682
   1426.92749     468.4286     360.6048   1426.92749     468.4286     360.6048
   1426.91223     471.3848     362.5884   1426.91223     471.3848     362.5884
   1426.89697     474.1423     365.1334   1426.89697     474.1423     365.1334
   1426.88171     476.8024     366.9380   1426.88171     476.8024     366.9380
   1426.86646     479.1448     369.8363   1426.86646     479.1448     369.8363
   1426.85120     482.6790     372.1712   1426.85120     482.6790     372.1712
   1426.83594     485.9644     374.6949   1426.83594     485.9644     374.6949
   1426.82068     489.0821     376.1819   1426.82068     489.0821     376.1819
   1426.80542     490.9504     378.7911   1426.80542     490.9504     378.7911
   1426.79016     493.5786     381.6755   1426.79016     493.5786     381.6755
   1426.77490     496.9482     383.5118   1426.77490     496.9482     383.5118
   1426.75964     499.8416     386.2596   1426.75964     499.8416     386.2596
   1426.74438     502.8641     388.6840   1426.74438     502.8641     388.6840
   1426.72913     505.2252     391.0837   1426.72913     505.2252     391.0837
   1426.71387     508.2265     393.2294   1426.71387     508.2265     393.2294
   1426.69861     510.4212     395.4809   1426.69861     510.4212     395.4809
   1426.68335     513.4755     398.1909   1426.68335     513.4755     398.1909
   1426.66809     516.4730     400.4348   1426.66809     516.4730     400.4348
   1426.65283     519.0714     403.5067   1426.65283     519.0714     403.5067
   1426.63757     522.2352     405.4183   1426.63757     522.2352     405.4183
   1426.62231     526.8580     409.3977   1426.62231     526.8580     409.3977
   1426.60706     528.0258     410.7657   1426.60706     528.0258     410.7657
   1426.59180     531.1859     413.4017   1426.59180     531.1859     413.4017
   1426.57654     533.7043     415.1250   1426.57654     533.7043     415.1250
   1426.56128     536.0682     418.3254   1426.56128     536.0682     418.3254
   1426.54602     538.7355     420.3627   1426.54602     538.7355     420.3627
   1426.53076     542.2640     423.3576   1426.53076     542.2640     423.3576
   1426.51550     544.8093     425.4238   1426.51550     544.8093     425.4238
   1426.50024     547.5950     427.8096   1426.50024     547.5950     427.8096
   1426.48499     550.5519     431.0251   1426.48499     550.5519     431.0251
   1426.46973     553.4831     432.8437   1426.46973     553.4831     432.8437
   1426.45447     555.5394     435.6083   1426.45447     555.5394     435.6083
   1426.43921     558.2297     437.8282   1426.43921     558.2297     437.8282
   1426.42395     560.4573     439.9521   1426.42395     560.4573     439.9521
   1426.40869     562.3438     442.1850   1426.40869     562.3438     442.1850
   1426.39343     566.7122     445.0439   1426.39343     566.7122     445.0439
   1426.37817     570.2087     447.3567   1426.37817     570.2087     447.3567
   1426.36292     572.2754     450.1889   1426.36292     572.2754     450.1889
   1426.34766     575.0853     452.3849   1426.34766     575.0853     452.3849
   1426.33240     577.7913     455.4306   1426.33240     577.7913     455.4306
   1426.31714     580.0257     457.2006   1426.31714     580.0257     457.2006
   1426.30188     582.4449     460.0237   1426.30188     582.4449     460.0237
   1426.28662     584.4787     462.3839   1426.28662     584.4787     462.3839
   1426.27136     588.4753     464.8370   1426.27136     588.4753     464.8370
   1426.25610     589.9473     467.5644   1426.25610     589.9473     467.5644
   1426.24084     592.9739     469.4281   1426.24084     592.9739     469.4281
   1426.22559     595.0216     471.5044   1426.22559     595.0216     471.5044
   1426.21033     598.3257     475.2543   1426.21033     598.3257     475.2543
   1426.19507     600.3861     477.7401   1426.19507     600.3861     477.7401
   1426.17981     602.6117     479.7854   1426.17981     602.6117     479.7854
   1426.16455     605.2654     482.3053   1426.16455     605.2654     482.3053
   1426.14929     607.0374     484.3293   1426.14929     607.0374     484.3293
   1426.13403     610.4937     487.9472   1426.13403     610.4937     487.9472
   1426.11877     612.7745     489.3495   1426.11877     612.7745     489.3495
   1426.10352     613.6242     492.1236   1426.10352     613.6242     492.1236
   1426.08826     617.0184     493.3765   1426.08826     617.0184     493.3765
   1426.07300     618.2052     496.6534   1426.07300     618.2052     496.6534
   1426.05774     620.3262     499.1476   1426.05774     620.3262     499.1476
   1426.04248     623.2269     501.3054   1426.04248     623.2269     501.3054
   1426.02722     626.3301     503.3967   1426.02722     626.3301     503.3967
   1426.01196     628.0233     505.4109   1426.01196     628.0233     505.4109
   1425.99670     629.5836     507.9475   1425.99670     629.5836     507.9475
   1425.98145     632.4259     510.1401   1425.98145     632.4259     510.1401
   1425.96619     633.7446     511.8614   1425.96619     633.7446     511.8614
   1425.95093     636.2431     514.6722   1425.95093     636.2431     514.6722
   1425.93567     638.1946     517.9803   1425.93567     638.1946     517.9803
   1425.92041     639.9008     519.5911   1425.92041     639.9008     519.5911
   1425.90515     643.0483     522.5215   1425.90515     643.0483     522.5215
   1425.88989     644.2239     524.5134   1425.88989     644.2239     524.5134
   1425.87463     646.0092     525.9719   1425.87463     646.0092     525.9719
   1425.85938     648.3054     528.6177   1425.85938     648.3054     528.6177
   1425.84412     650.5535     531.5892   1425.84412     650.5535     531.5892
   1425.82886     651.1091     533.7744   1425.82886     651.1091     533.7744
   1425.81360     653.2249     534.8007   1425.81360     653.2249     534.8007
   1425.79834     656.0607     538.6234   1425.79834     656.0607     538.6234
   1425.78308     656.7463     540.2060   1425.78308     656.7463     540.2060
   1425.76782     658.7993     541.3035   1425.76782     658.7993     541.3035
   1425.75256     660.8118     544.3609   1425.75256     660.8118     544.3609
   1425.73730     661.0173     545.6996   1425.73730     661.0173     545.6996
   1425.72205     663.7354     548.2624   1425.72205     663.7354     548.2624
   1425.70679     664.8657     549.8212   1425.70679     664.8657     549.8212
   1425.69153     667.9866     553.0040   1425.69153     667.9866     553.0040
   1425.67627     668.7133     553.8440   1425.67627     668.7133     553.8440
   1425.66101     669.7441     556.6422   1425.66101     669.7441     556.6422
   1425.64575     671.1664     559.4528   1425.64575     671.1664     559.4528
   1425.63049     672.7040     559.5096   1425.63049     672.7040     559.5096
   1425.61523     675.7032     562.1749   1425.61523     675.7032     562.1749
   1425.59998     675.5410     564.8371   1425.59998     675.5410     564.8371
   1425.58472     677.5813     567.2255   1425.58472     677.5813     567.2255
   1425.56946     678.8627     569.1303   1425.56946     678.8627     569.1303
   1425.55420     680.5590     570.0702   1425.55420     680.5590     570.0702
   1425.53894     680.5789     572.4797   1425.53894     680.5789     572.4797
   1425.52368     682.3323     574.5474   1425.52368     682.3323     574.5474
   1425.50842     683.8395     576.5425   1425.50842     683.8395     576.5425
   1425.49316     684.8459     578.9856   1425.49316     684.8459     578.9856
   1425.47791     686.4175     579.9810   1425.47791     686.4175     579.9810
   1425.46265     688.2039     582.1525   1425.46265     688.2039     582.1525
   1425.44739     688.9019     584.1429   1425.44739     688.9019     584.1429
   1425.43213     689.8723     585.5902   1425.43213     689.8723     585.5902
   1425.41687     691.3447     586.4180   1425.41687     691.3447     586.4180
   1425.40161     692.5651     589.6725   1425.40161     692.5651     589.6725
   1425.38635     693.1290     591.5258   1425.38635     693.1290     591.5258
   1425.37109     694.3340     593.0490   1425.37109     694.3340     593.0490
   1425.35583     695.5624     595.1075   1425.35583     695.5624     595.1075
   1425.34058     695.8204     596.8528   1425.34058     695.8204     596.8528
   1425.32532     695.9890     598.3472   1425.32532     695.9890     598.3472
   1425.31006     697.3533     599.9694   1425.31006     697.3533     599.9694
   1425.29480     699.5274     601.1801   1425.29480     699.5274     601.1801
   1425.27954     699.0259     603.7198   1425.27954     699.0259     603.7198
   1425.26428     700.7880     605.8435   1425.26428     700.7880     605.8435
   1425.24902     702.1705     607.1650   1425.24902     702.1705     607.1650
   1425.23376     702.1080     609.3871   1425.23376     702.1080     609.3871
   1425.21851     703.5332     610.0981   1425.21851     703.5332     610.0981
   1425.20325     704.2566     611.7489   1425.20325     704.2566     611.7489
   1425.18799     702.7750     613.5948   1425.18799     702.7750     613.5948
   1425.17273     706.4345     614.3585   1425.17273     706.4345     614.3585
   1425.15747     705.2070     617.4680   1425.15747     705.2070     617.4680
   1425.14221     707.1243     617.0030   1425.14221     707.1243     617.0030
   1425.12695     707.5306     619.6786   1425.12695     707.5306     619.6786
   1425.11169     708.5387     621.1005   1425.11169     708.5387     621.1005
   1425.09644     707.8738     621.8206   1425.09644     707.8738     621.8206
   1425.08118     708.9706     623.5383   1425.08118     708.9706     623.5383
   1425.06592     710.7683     625.1794   1425.06592     710.7683     625.1794
   1425.05066     709.2585     625.9177   1425.05066     709.2585     625.9177
   1425.03540     710.9331     627.3168   1425.03540     710.9331     627.3168
   1425.02014     710.9533     630.1501   1425.02014     710.9533     630.1501
   1425.00488     712.6077     629.5342   1425.00488     712.6077     629.5342
   1424.98962     712.3922     631.8152   1424.98962     712.3922     631.8152
   1424.97437     713.1101     632.6082   1424.97437     713.1101     632.6082
   1424.95911     713.4075     633.4721   1424.95911     713.4075     633.4721
   1424.94385     714.3216     636.0155   1424.94385     714.3216     636.0155
   1424.92859     713.0330     636.5320   1424.92859     713.0330     636.5320
   1424.91333     714.2786     637.9957   1424.91333     714.2786     637.9957
   1424.89807     713.6554     639.8233   1424.89807     713.6554     639.8233
   1424.88281     714.5867     641.2654   1424.88281     714.5867     641.2654
   1424.86755     715.3234     642.2699   1424.86755     715.3234     642.2699
   1424.85229     717.0185     641.6598   1424.85229     717.0185     641.6598
   1424.83704     716.7433     643.7110   1424.83704     716.7433     643.7110
   1424.82178     715.9398     645.2841   1424.82178     715.9398     645.2841
   1424.80652     717.0894     646.5414   1424.80652     717.0894     646.5414
   1424.79126     715.9282     646.2133   1424.79126     715.9282     646.2133
   1424.77600     717.6214     646.5406   1424.77600     717.6214     646.5406
   1424.76074     716.7407     647.8113   1424.76074     716.7407     647.8113
   1424.74548     717.4460     650.0645   1424.74548     717.4460     650.0645
   1424.73022     718.1462     651.1773   1424.73022     718.1462     651.1773
   1424.71497     717.0860     652.6250   1424.71497     717.0860     652.6250
   1424.69971     718.7537     653.4573   1424.69971     718.7537     653.4573
   1424.68445     717.3989     653.5195   1424.68445     717.3989     653.5195
   1424.66919     719.1079     655.3515   1424.66919     719.1079     655.3515
   1424.65393     719.1011     655.2751   1424.65393     719.1011     655.2751
   1424.63867     719.1594     656.3278   1424.63867     719.1594     656.3278
   1424.62341     718.3469     657.8486   1424.62341     718.3469     657.8486
   1424.60815     719.1534     658.9383   1424.60815     719.1534     658.9383
   1424.59290     719.9109     658.9095   1424.59290     719.9109     658.9095
   1424.57764     718.8849     660.6766   1424.57764     718.8849     660.6766
   1424.56238     719.1520     661.4628   1424.56238     719.1520     661.4628
   1424.54712     720.1700     661.3321   1424.54712     720.1700     661.3321
   1424.53186     719.8272     662.3490   1424.53186     719.8272     662.3490
   1424.51660     718.1296     663.7889   1424.51660     718.1296     663.7889
   1424.50134     719.3155     663.2599   1424.50134     719.3155     663.2599
   1424.48608     719.5496     664.3038   1424.48608     719.5496     664.3038
   1424.47083     719.1740     665.1438   1424.47083     719.1740     665.1438
   1424.45557     719.3185     665.2088   1424.45557     719.3185     665.2088
   1424.44031     719.2285     666.4499   1424.44031     719.2285     666.4499
   1424.42505     719.4203     667.2875   1424.42505     719.4203     667.2875
   1424.40979     718.4926     666.3862   1424.40979     718.4926     666.3862
   1424.39453     718.6052     668.7078   1424.39453     718.6052     668.7078
   1424.37927     719.6111     669.6069   1424.37927     719.6111     669.6069
   1424.36401     719.1007     668.9868   1424.36401     719.1007     668.9868
   1424.34875     718.6622     669.1296   1424.34875     718.6622     669.1296
   1424.33350     719.0147     669.9127   1424.33350     719.0147     669.9127
   1424.31824     718.8869     670.8394   1424.31824     718.8869     670.8394
   1424.30298     718.4713     671.5987   1424.30298     718.4713     671.5987
   1424.28772     719.1507     670.2924   1424.28772     719.1507     670.2924
   1424.27246     718.5612     671.4542   1424.27246     718.5612     671.4542
   1424.25720     717.7104     670.8102   1424.25720     717.7104     670.8102
   1424.24194     718.0384     671.8001   1424.24194     718.0384     671.8001
   1424.22668     719.3966     671.8365   1424.22668     719.3966     671.8365
   1424.21143     718.2963     671.3466   1424.21143     718.2963     671.3466
   1424.19617     717.7900     672.5208   1424.19617     717.7900     672.5208
   1424.18091     718.3329     672.9134   1424.18091     718.3329     672.9134
   1424.16565     717.3129     672.2073   1424.16565     717.3129     672.2073
