#     FILENAME=!Skynet_57528_lach-hhg-106_20364_20913.cyb.fits
#     BASENAME=Skynet_57528_lach-hhg-106_20364_20913
#     SRC_NAME=lach-hhg-106
#     OBSERVER=hhgmadison16_9500
#     DATE_OBS=2016-05-20T15:35:25.870
#        OBSID=20364
#      SCANNUM=20913
#          MJD=57528.6506
#          UTC=56214
#     SCANTYPE=track
#     DATAMODE=HIRES
#     TUNEFREQ=1420.0000
# Actual_FREQ1=1420.0000
# Actual_FREQ2=1420.0000
#    LO1Tuning=6870.000
#     RFFILTER=1355_1435
#        OBSBW=-15.6250
#        NCHAN=1024 
#        FOCUS=37.0709
#           RA=22:36:41.16
#          DEC=58:21:53.50
#      RA(hrs)=22.611400
#     DEC(deg)=58.364900
#    AZIM(deg)=317.888
#    ELEV(deg)=50.599
#     IFattens=10.00, 10.00
#      WARNING=None
#    TCAL_XL1=7.9635
#    TCAL_YR1=9.1340
#    TCAL_XL2=7.9635
#    TCAL_YR2=9.1340
#     TRX_XL1=11.7060
#     TRX_YR1=11.7060
#     TRX_XL2=11.7060
#     TRX_YR2=11.7060
#        TAVE=1.0000
#Freq1(MHz)          XL1          YR1  Freq2(MHz)          XL2          YR2 

   1427.81250     295.4380     288.1489   1427.81250     295.4380     288.1489
   1427.79724     296.4437     289.4646   1427.79724     296.4437     289.4646
   1427.78198     296.7017     290.1399   1427.78198     296.7017     290.1399
   1427.76672     297.2394     290.9750   1427.76672     297.2394     290.9750
   1427.75146     298.3960     292.1313   1427.75146     298.3960     292.1313
   1427.73621     298.5880     292.9207   1427.73621     298.5880     292.9207
   1427.72095     299.6601     293.9883   1427.72095     299.6601     293.9883
   1427.70569     300.1586     294.9716   1427.70569     300.1586     294.9716
   1427.69043     301.2495     295.7861   1427.69043     301.2495     295.7861
   1427.67517     301.6022     296.6805   1427.67517     301.6022     296.6805
   1427.65991     302.7584     298.5552   1427.65991     302.7584     298.5552
   1427.64465     303.4373     299.8551   1427.64465     303.4373     299.8551
   1427.62939     304.3352     300.5341   1427.62939     304.3352     300.5341
   1427.61414     305.1708     301.5582   1427.61414     305.1708     301.5582
   1427.59888     306.6325     302.7523   1427.59888     306.6325     302.7523
   1427.58362     307.7860     304.0728   1427.58362     307.7860     304.0728
   1427.56836     308.8926     305.7654   1427.56836     308.8926     305.7654
   1427.55310     310.1999     306.8928   1427.55310     310.1999     306.8928
   1427.53784     311.4608     308.5356   1427.53784     311.4608     308.5356
   1427.52258     312.5400     310.0837   1427.52258     312.5400     310.0837
   1427.50732     314.3886     311.5787   1427.50732     314.3886     311.5787
   1427.49207     314.8354     312.5948   1427.49207     314.8354     312.5948
   1427.47681     316.5864     314.8213   1427.47681     316.5864     314.8213
   1427.46155     318.0592     315.9549   1427.46155     318.0592     315.9549
   1427.44629     319.9389     318.1447   1427.44629     319.9389     318.1447
   1427.43103     321.1564     318.9796   1427.43103     321.1564     318.9796
   1427.41577     322.6551     320.9977   1427.41577     322.6551     320.9977
   1427.40051     324.3945     322.1078   1427.40051     324.3945     322.1078
   1427.38525     326.0203     324.3232   1427.38525     326.0203     324.3232
   1427.37000     327.3710     325.7993   1427.37000     327.3710     325.7993
   1427.35474     329.2376     327.7427   1427.35474     329.2376     327.7427
   1427.33948     330.6906     329.6017   1427.33948     330.6906     329.6017
   1427.32422     332.8248     331.7450   1427.32422     332.8248     331.7450
   1427.30896     333.9573     333.1078   1427.30896     333.9573     333.1078
   1427.29370     335.8763     335.1805   1427.29370     335.8763     335.1805
   1427.27844     337.5207     337.2301   1427.27844     337.5207     337.2301
   1427.26318     339.1741     339.6498   1427.26318     339.1741     339.6498
   1427.24792     341.3054     340.8250   1427.24792     341.3054     340.8250
   1427.23267     343.5215     343.1277   1427.23267     343.5215     343.1277
   1427.21741     344.7656     344.7139   1427.21741     344.7656     344.7139
   1427.20215     347.3540     347.2868   1427.20215     347.3540     347.2868
   1427.18689     349.2392     349.1013   1427.18689     349.2392     349.1013
   1427.17163     351.8205     350.9532   1427.17163     351.8205     350.9532
   1427.15637     353.4442     353.3882   1427.15637     353.4442     353.3882
   1427.14111     355.2782     355.1620   1427.14111     355.2782     355.1620
   1427.12585     357.1609     357.8766   1427.12585     357.1609     357.8766
   1427.11060     359.2392     359.6536   1427.11060     359.2392     359.6536
   1427.09534     361.8171     361.8306   1427.09534     361.8171     361.8306
   1427.08008     364.1951     364.4337   1427.08008     364.1951     364.4337
   1427.06482     365.9460     366.1076   1427.06482     365.9460     366.1076
   1427.04956     368.4894     368.6827   1427.04956     368.4894     368.6827
   1427.03430     369.8374     370.7871   1427.03430     369.8374     370.7871
   1427.01904     373.0320     372.8437   1427.01904     373.0320     372.8437
   1427.00378     374.7487     375.2906   1427.00378     374.7487     375.2906
   1426.98853     376.5537     377.3953   1426.98853     376.5537     377.3953
   1426.97327     379.2842     378.8456   1426.97327     379.2842     378.8456
   1426.95801     381.5948     381.9043   1426.95801     381.5948     381.9043
   1426.94275     383.8346     384.0405   1426.94275     383.8346     384.0405
   1426.92749     386.2174     386.4167   1426.92749     386.2174     386.4167
   1426.91223     388.6032     388.8275   1426.91223     388.6032     388.8275
   1426.89697     391.3132     390.4881   1426.89697     391.3132     390.4881
   1426.88171     393.5044     393.3784   1426.88171     393.5044     393.3784
   1426.86646     395.3428     396.1185   1426.86646     395.3428     396.1185
   1426.85120     398.3965     398.0695   1426.85120     398.3965     398.0695
   1426.83594     400.2780     400.0875   1426.83594     400.2780     400.0875
   1426.82068     402.3093     402.0735   1426.82068     402.3093     402.0735
   1426.80542     404.4938     405.1605   1426.80542     404.4938     405.1605
   1426.79016     407.1873     407.1685   1426.79016     407.1873     407.1685
   1426.77490     409.6469     409.3680   1426.77490     409.6469     409.3680
   1426.75964     412.5357     411.8622   1426.75964     412.5357     411.8622
   1426.74438     414.9263     415.1680   1426.74438     414.9263     415.1680
   1426.72913     417.2763     416.4396   1426.72913     417.2763     416.4396
   1426.71387     419.9545     418.8542   1426.71387     419.9545     418.8542
   1426.69861     422.5728     421.1072   1426.69861     422.5728     421.1072
   1426.68335     423.6487     423.8659   1426.68335     423.6487     423.8659
   1426.66809     426.8951     426.1114   1426.66809     426.8951     426.1114
   1426.65283     429.9290     427.7792   1426.65283     429.9290     427.7792
   1426.63757     431.7058     430.3352   1426.63757     431.7058     430.3352
   1426.62231     434.7477     433.5189   1426.62231     434.7477     433.5189
   1426.60706     436.8580     435.6273   1426.60706     436.8580     435.6273
   1426.59180     438.6889     437.5876   1426.59180     438.6889     437.5876
   1426.57654     441.7628     439.3098   1426.57654     441.7628     439.3098
   1426.56128     443.6278     441.2974   1426.56128     443.6278     441.2974
   1426.54602     447.1922     444.4004   1426.54602     447.1922     444.4004
   1426.53076     447.9803     447.1111   1426.53076     447.9803     447.1111
   1426.51550     450.9610     448.0613   1426.51550     450.9610     448.0613
   1426.50024     453.4135     450.7417   1426.50024     453.4135     450.7417
   1426.48499     454.7042     453.7407   1426.48499     454.7042     453.7407
   1426.46973     458.0290     455.6263   1426.46973     458.0290     455.6263
   1426.45447     460.5399     458.0602   1426.45447     460.5399     458.0602
   1426.43921     462.7015     459.4080   1426.43921     462.7015     459.4080
   1426.42395     464.9141     461.5270   1426.42395     464.9141     461.5270
   1426.40869     467.7793     464.3383   1426.40869     467.7793     464.3383
   1426.39343     469.7508     466.1577   1426.39343     469.7508     466.1577
   1426.37817     472.8040     468.4768   1426.37817     472.8040     468.4768
   1426.36292     474.3598     470.4930   1426.36292     474.3598     470.4930
   1426.34766     476.6927     472.8852   1426.34766     476.6927     472.8852
   1426.33240     478.9803     474.9396   1426.33240     478.9803     474.9396
   1426.31714     481.1974     476.2861   1426.31714     481.1974     476.2861
   1426.30188     484.1710     478.4583   1426.30188     484.1710     478.4583
   1426.28662     486.0155     480.4453   1426.28662     486.0155     480.4453
   1426.27136     488.6549     483.1922   1426.27136     488.6549     483.1922
   1426.25610     490.7002     485.6272   1426.25610     490.7002     485.6272
   1426.24084     492.6714     486.9109   1426.24084     492.6714     486.9109
   1426.22559     494.7961     488.6247   1426.22559     494.7961     488.6247
   1426.21033     496.2819     490.8929   1426.21033     496.2819     490.8929
   1426.19507     498.7630     493.4072   1426.19507     498.7630     493.4072
   1426.17981     501.6474     495.5868   1426.17981     501.6474     495.5868
   1426.16455     502.3824     496.4658   1426.16455     502.3824     496.4658
   1426.14929     504.7819     498.5493   1426.14929     504.7819     498.5493
   1426.13403     505.9299     501.2095   1426.13403     505.9299     501.2095
   1426.11877     509.6601     502.4029   1426.11877     509.6601     502.4029
   1426.10352     510.9729     504.5994   1426.10352     510.9729     504.5994
   1426.08826     513.6036     505.8238   1426.08826     513.6036     505.8238
   1426.07300     515.4590     508.3172   1426.07300     515.4590     508.3172
   1426.05774     516.8063     509.8134   1426.05774     516.8063     509.8134
   1426.04248     518.7457     511.4228   1426.04248     518.7457     511.4228
   1426.02722     521.0116     513.2505   1426.02722     521.0116     513.2505
   1426.01196     522.7986     514.8933   1426.01196     522.7986     514.8933
   1425.99670     525.0497     516.7236   1425.99670     525.0497     516.7236
   1425.98145     526.1616     518.7182   1425.98145     526.1616     518.7182
   1425.96619     529.0128     520.3165   1425.96619     529.0128     520.3165
   1425.95093     530.0551     522.7794   1425.95093     530.0551     522.7794
   1425.93567     531.4662     523.6328   1425.93567     531.4662     523.6328
   1425.92041     533.7304     525.1512   1425.92041     533.7304     525.1512
   1425.90515     535.1310     527.4492   1425.90515     535.1310     527.4492
   1425.88989     537.1890     528.4423   1425.88989     537.1890     528.4423
   1425.87463     538.4921     531.0629   1425.87463     538.4921     531.0629
   1425.85938     540.4967     532.4446   1425.85938     540.4967     532.4446
   1425.84412     542.6135     533.3124   1425.84412     542.6135     533.3124
   1425.82886     543.4238     535.2038   1425.82886     543.4238     535.2038
   1425.81360     545.3271     537.4075   1425.81360     545.3271     537.4075
   1425.79834     547.0889     538.2964   1425.79834     547.0889     538.2964
   1425.78308     547.5458     540.4097   1425.78308     547.5458     540.4097
   1425.76782     550.0958     541.0391   1425.76782     550.0958     541.0391
   1425.75256     551.3916     542.2034   1425.75256     551.3916     542.2034
   1425.73730     552.6365     544.5237   1425.73730     552.6365     544.5237
   1425.72205     552.9556     545.2889   1425.72205     552.9556     545.2889
   1425.70679     554.5886     547.3189   1425.70679     554.5886     547.3189
   1425.69153     556.9661     548.9698   1425.69153     556.9661     548.9698
   1425.67627     557.8415     550.9010   1425.67627     557.8415     550.9010
   1425.66101     558.9462     551.5359   1425.66101     558.9462     551.5359
   1425.64575     560.6162     552.8380   1425.64575     560.6162     552.8380
   1425.63049     562.5057     554.1873   1425.63049     562.5057     554.1873
   1425.61523     562.6737     555.5175   1425.61523     562.6737     555.5175
   1425.59998     565.2600     557.2772   1425.59998     565.2600     557.2772
   1425.58472     566.0117     557.6028   1425.58472     566.0117     557.6028
   1425.56946     566.1843     559.9246   1425.56946     566.1843     559.9246
   1425.55420     568.2136     560.7807   1425.55420     568.2136     560.7807
   1425.53894     569.0582     562.0628   1425.53894     569.0582     562.0628
   1425.52368     570.8820     564.5010   1425.52368     570.8820     564.5010
   1425.50842     571.6439     564.3800   1425.50842     571.6439     564.3800
   1425.49316     572.5460     565.0172   1425.49316     572.5460     565.0172
   1425.47791     573.9810     567.2455   1425.47791     573.9810     567.2455
   1425.46265     574.5805     567.9798   1425.46265     574.5805     567.9798
   1425.44739     575.8411     570.0925   1425.44739     575.8411     570.0925
   1425.43213     575.9290     570.7659   1425.43213     575.9290     570.7659
   1425.41687     577.1510     572.8372   1425.41687     577.1510     572.8372
   1425.40161     577.9873     572.8978   1425.40161     577.9873     572.8978
   1425.38635     579.4423     573.6321   1425.38635     579.4423     573.6321
   1425.37109     580.3498     575.1497   1425.37109     580.3498     575.1497
   1425.35583     580.1501     576.1081   1425.35583     580.1501     576.1081
   1425.34058     582.2268     578.1929   1425.34058     582.2268     578.1929
   1425.32532     581.6425     577.7187   1425.32532     581.6425     577.7187
   1425.31006     583.7153     579.5597   1425.31006     583.7153     579.5597
   1425.29480     584.4031     580.5875   1425.29480     584.4031     580.5875
   1425.27954     585.3419     581.3885   1425.27954     585.3419     581.3885
   1425.26428     585.4822     582.4124   1425.26428     585.4822     582.4124
   1425.24902     586.0980     584.7603   1425.24902     586.0980     584.7603
   1425.23376     586.5927     584.4719   1425.23376     586.5927     584.4719
   1425.21851     587.9905     585.7664   1425.21851     587.9905     585.7664
   1425.20325     588.4875     586.0073   1425.20325     588.4875     586.0073
   1425.18799     587.7180     587.9803   1425.18799     587.7180     587.9803
   1425.17273     588.8572     589.1375   1425.17273     588.8572     589.1375
   1425.15747     589.7598     589.1141   1425.15747     589.7598     589.1141
   1425.14221     591.2349     590.7248   1425.14221     591.2349     590.7248
   1425.12695     590.6133     591.2980   1425.12695     590.6133     591.2980
   1425.11169     590.9958     592.0670   1425.11169     590.9958     592.0670
   1425.09644     591.0001     593.0665   1425.09644     591.0001     593.0665
   1425.08118     593.2009     595.1006   1425.08118     593.2009     595.1006
   1425.06592     593.7682     595.6497   1425.06592     593.7682     595.6497
   1425.05066     593.6796     596.6644   1425.05066     593.6796     596.6644
   1425.03540     594.4553     596.2095   1425.03540     594.4553     596.2095
   1425.02014     594.3704     597.4290   1425.02014     594.3704     597.4290
   1425.00488     594.3074     598.7902   1425.00488     594.3074     598.7902
   1424.98962     594.9831     600.0635   1424.98962     594.9831     600.0635
   1424.97437     596.1803     599.9878   1424.97437     596.1803     599.9878
   1424.95911     595.2232     601.1649   1424.95911     595.2232     601.1649
   1424.94385     596.0543     601.6509   1424.94385     596.0543     601.6509
   1424.92859     596.1556     602.6388   1424.92859     596.1556     602.6388
   1424.91333     596.4179     603.2398   1424.91333     596.4179     603.2398
   1424.89807     597.2708     603.9604   1424.89807     597.2708     603.9604
   1424.88281     596.8757     604.7923   1424.88281     596.8757     604.7923
   1424.86755     597.2290     605.4928   1424.86755     597.2290     605.4928
   1424.85229     597.9512     606.0411   1424.85229     597.9512     606.0411
   1424.83704     597.9343     607.4415   1424.83704     597.9343     607.4415
   1424.82178     598.6501     607.6337   1424.82178     598.6501     607.6337
   1424.80652     597.7669     608.6090   1424.80652     597.7669     608.6090
   1424.79126     598.6981     608.9266   1424.79126     598.6981     608.9266
   1424.77600     597.8756     609.5071   1424.77600     597.8756     609.5071
   1424.76074     599.1804     610.0937   1424.76074     599.1804     610.0937
   1424.74548     598.2017     611.2425   1424.74548     598.2017     611.2425
   1424.73022     598.5666     611.4020   1424.73022     598.5666     611.4020
   1424.71497     598.5320     612.5034   1424.71497     598.5320     612.5034
   1424.69971     598.4383     613.0157   1424.69971     598.4383     613.0157
   1424.68445     598.6338     614.2372   1424.68445     598.6338     614.2372
   1424.66919     599.0969     614.7751   1424.66919     599.0969     614.7751
   1424.65393     598.9581     615.0969   1424.65393     598.9581     615.0969
   1424.63867     598.8109     615.4028   1424.63867     598.8109     615.4028
   1424.62341     599.1279     615.8839   1424.62341     599.1279     615.8839
   1424.60815     598.6512     616.7985   1424.60815     598.6512     616.7985
   1424.59290     598.8597     617.5025   1424.59290     598.8597     617.5025
   1424.57764     599.1283     617.6750   1424.57764     599.1283     617.6750
   1424.56238     598.9020     619.2229   1424.56238     598.9020     619.2229
   1424.54712     599.5804     619.4942   1424.54712     599.5804     619.4942
   1424.53186     598.8755     619.5640   1424.53186     598.8755     619.5640
   1424.51660     598.9000     619.7108   1424.51660     598.9000     619.7108
   1424.50134     599.5663     621.0859   1424.50134     599.5663     621.0859
   1424.48608     598.5297     620.3607   1424.48608     598.5297     620.3607
   1424.47083     599.4916     621.5742   1424.47083     599.4916     621.5742
   1424.45557     599.5344     622.4592   1424.45557     599.5344     622.4592
   1424.44031     598.3603     622.3273   1424.44031     598.3603     622.3273
   1424.42505     598.3658     624.1475   1424.42505     598.3658     624.1475
   1424.40979     598.4798     623.3448   1424.40979     598.4798     623.3448
   1424.39453     598.9078     623.5563   1424.39453     598.9078     623.5563
   1424.37927     599.1080     624.9238   1424.37927     599.1080     624.9238
   1424.36401     599.2431     625.2494   1424.36401     599.2431     625.2494
   1424.34875     598.3268     626.6747   1424.34875     598.3268     626.6747
   1424.33350     599.3331     625.6177   1424.33350     599.3331     625.6177
   1424.31824     597.9340     625.9731   1424.31824     597.9340     625.9731
   1424.30298     597.4783     627.3151   1424.30298     597.4783     627.3151
   1424.28772     598.3472     627.4091   1424.28772     598.3472     627.4091
   1424.27246     598.1786     627.2610   1424.27246     598.1786     627.2610
   1424.25720     597.4218     628.1006   1424.25720     597.4218     628.1006
   1424.24194     597.3058     629.0225   1424.24194     597.3058     629.0225
   1424.22668     596.5356     628.5928   1424.22668     596.5356     628.5928
   1424.21143     597.5053     629.6763   1424.21143     597.5053     629.6763
   1424.19617     598.2390     630.1711   1424.19617     598.2390     630.1711
   1424.18091     596.4171     630.2861   1424.18091     596.4171     630.2861
   1424.16565     596.8945     630.8211   1424.16565     596.8945     630.8211
