#     FILENAME=!Skynet_57528_lach-hhg-142_20467_20966.cyb.fits
#     BASENAME=Skynet_57528_lach-hhg-142_20467_20966
#     SRC_NAME=lach-hhg-142
#     OBSERVER=hhgmadison16_9500
#     DATE_OBS=2016-05-20T17:21:32.750
#        OBSID=20467
#      SCANNUM=20966
#          MJD=57528.7243
#          UTC=62581
#     SCANTYPE=track
#     DATAMODE=HIRES
#     TUNEFREQ=1420.0000
# Actual_FREQ1=1420.0000
# Actual_FREQ2=1420.0000
#    LO1Tuning=6870.000
#     RFFILTER=1355_1435
#        OBSBW=-15.6250
#        NCHAN=1024 
#        FOCUS=37.0709
#           RA=03:20:06.16
#          DEC=57:15:46.89
#      RA(hrs)=3.335000
#     DEC(deg)=57.263000
#    AZIM(deg)=345.037
#    ELEV(deg)=70.126
#     IFattens=11.00, 9.00
#      WARNING=None
#    TCAL_XL1=7.9635
#    TCAL_YR1=9.1340
#    TCAL_XL2=7.9635
#    TCAL_YR2=9.1340
#     TRX_XL1=11.7060
#     TRX_YR1=11.7060
#     TRX_XL2=11.7060
#     TRX_YR2=11.7060
#        TAVE=1.0000
#Freq1(MHz)          XL1          YR1  Freq2(MHz)          XL2          YR2 

   1427.81250     380.0036     255.5812   1427.81250     380.0036     255.5812
   1427.79724     380.2122     256.0429   1427.79724     380.2122     256.0429
   1427.78198     381.4749     257.7464   1427.78198     381.4749     257.7464
   1427.76672     381.5112     258.0910   1427.76672     381.5112     258.0910
   1427.75146     383.1773     259.4632   1427.75146     383.1773     259.4632
   1427.73621     383.5655     260.4026   1427.73621     383.5655     260.4026
   1427.72095     384.2448     261.1489   1427.72095     384.2448     261.1489
   1427.70569     385.5176     262.6035   1427.70569     385.5176     262.6035
   1427.69043     386.4277     263.7433   1427.69043     386.4277     263.7433
   1427.67517     387.3990     264.5333   1427.67517     387.3990     264.5333
   1427.65991     388.4152     266.2240   1427.65991     388.4152     266.2240
   1427.64465     389.3816     267.2876   1427.64465     389.3816     267.2876
   1427.62939     391.6807     268.7275   1427.62939     391.6807     268.7275
   1427.61414     392.6670     269.6775   1427.61414     392.6670     269.6775
   1427.59888     393.7558     271.5346   1427.59888     393.7558     271.5346
   1427.58362     395.2494     272.8842   1427.58362     395.2494     272.8842
   1427.56836     396.3326     273.8042   1427.56836     396.3326     273.8042
   1427.55310     398.9084     275.4732   1427.55310     398.9084     275.4732
   1427.53784     400.2578     276.8510   1427.53784     400.2578     276.8510
   1427.52258     401.3949     278.1299   1427.52258     401.3949     278.1299
   1427.50732     403.0499     279.0710   1427.50732     403.0499     279.0710
   1427.49207     405.3712     281.8125   1427.49207     405.3712     281.8125
   1427.47681     406.7124     282.7145   1427.47681     406.7124     282.7145
   1427.46155     408.4043     284.4154   1427.46155     408.4043     284.4154
   1427.44629     410.8553     286.4093   1427.44629     410.8553     286.4093
   1427.43103     411.5067     287.4567   1427.43103     411.5067     287.4567
   1427.41577     414.0327     289.6486   1427.41577     414.0327     289.6486
   1427.40051     416.2303     290.9731   1427.40051     416.2303     290.9731
   1427.38525     417.2478     292.4820   1427.38525     417.2478     292.4820
   1427.37000     419.6976     294.2427   1427.37000     419.6976     294.2427
   1427.35474     421.8556     296.4680   1427.35474     421.8556     296.4680
   1427.33948     424.3259     297.6138   1427.33948     424.3259     297.6138
   1427.32422     426.5254     299.6788   1427.32422     426.5254     299.6788
   1427.30896     429.1912     301.5741   1427.30896     429.1912     301.5741
   1427.29370     430.8375     303.0957   1427.29370     430.8375     303.0957
   1427.27844     433.4478     305.3155   1427.27844     433.4478     305.3155
   1427.26318     435.5806     306.6214   1427.26318     435.5806     306.6214
   1427.24792     437.8960     308.2272   1427.24792     437.8960     308.2272
   1427.23267     440.0469     310.4062   1427.23267     440.0469     310.4062
   1427.21741     443.0770     312.6231   1427.21741     443.0770     312.6231
   1427.20215     445.3885     313.9257   1427.20215     445.3885     313.9257
   1427.18689     448.1350     316.5661   1427.18689     448.1350     316.5661
   1427.17163     451.4179     318.1392   1427.17163     451.4179     318.1392
   1427.15637     453.9716     320.0735   1427.15637     453.9716     320.0735
   1427.14111     455.5078     321.8880   1427.14111     455.5078     321.8880
   1427.12585     459.1805     324.1429   1427.12585     459.1805     324.1429
   1427.11060     461.9756     326.1192   1427.11060     461.9756     326.1192
   1427.09534     463.9742     328.0089   1427.09534     463.9742     328.0089
   1427.08008     467.4687     330.5673   1427.08008     467.4687     330.5673
   1427.06482     469.9256     332.1592   1427.06482     469.9256     332.1592
   1427.04956     472.9852     333.7491   1427.04956     472.9852     333.7491
   1427.03430     475.9991     336.0799   1427.03430     475.9991     336.0799
   1427.01904     478.6064     337.6155   1427.01904     478.6064     337.6155
   1427.00378     481.4334     339.8273   1427.00378     481.4334     339.8273
   1426.98853     483.9992     341.6995   1426.98853     483.9992     341.6995
   1426.97327     488.2724     343.3208   1426.97327     488.2724     343.3208
   1426.95801     490.4537     346.0417   1426.95801     490.4537     346.0417
   1426.94275     493.5853     348.0698   1426.94275     493.5853     348.0698
   1426.92749     496.4395     350.0038   1426.92749     496.4395     350.0038
   1426.91223     500.3724     351.8390   1426.91223     500.3724     351.8390
   1426.89697     503.0960     353.8966   1426.89697     503.0960     353.8966
   1426.88171     505.6896     356.0993   1426.88171     505.6896     356.0993
   1426.86646     508.8430     357.6967   1426.86646     508.8430     357.6967
   1426.85120     511.4755     360.1688   1426.85120     511.4755     360.1688
   1426.83594     515.4520     362.1905   1426.83594     515.4520     362.1905
   1426.82068     517.5443     363.4545   1426.82068     517.5443     363.4545
   1426.80542     520.9571     366.2415   1426.80542     520.9571     366.2415
   1426.79016     524.7504     368.1305   1426.79016     524.7504     368.1305
   1426.77490     528.2726     370.9007   1426.77490     528.2726     370.9007
   1426.75964     531.2812     371.9923   1426.75964     531.2812     371.9923
   1426.74438     534.6630     374.6771   1426.74438     534.6630     374.6771
   1426.72913     538.3470     376.5257   1426.72913     538.3470     376.5257
   1426.71387     540.4492     378.3553   1426.71387     540.4492     378.3553
   1426.69861     543.7331     379.9671   1426.69861     543.7331     379.9671
   1426.68335     548.1774     382.4052   1426.68335     548.1774     382.4052
   1426.66809     550.2819     384.2475   1426.66809     550.2819     384.2475
   1426.65283     553.3698     386.4469   1426.65283     553.3698     386.4469
   1426.63757     557.6176     388.6270   1426.63757     557.6176     388.6270
   1426.62231     563.9299     398.8700   1426.62231     563.9299     398.8700
   1426.60706     563.5489     393.3244   1426.60706     563.5489     393.3244
   1426.59180     567.3503     394.0277   1426.59180     567.3503     394.0277
   1426.57654     569.4810     395.8607   1426.57654     569.4810     395.8607
   1426.56128     572.9257     397.7345   1426.56128     572.9257     397.7345
   1426.54602     576.0889     399.1402   1426.54602     576.0889     399.1402
   1426.53076     579.4943     401.0746   1426.53076     579.4943     401.0746
   1426.51550     583.2056     402.8895   1426.51550     583.2056     402.8895
   1426.50024     585.4574     404.0374   1426.50024     585.4574     404.0374
   1426.48499     588.9888     407.1850   1426.48499     588.9888     407.1850
   1426.46973     592.8773     408.9439   1426.46973     592.8773     408.9439
   1426.45447     594.9355     410.6486   1426.45447     594.9355     410.6486
   1426.43921     598.7343     412.6280   1426.43921     598.7343     412.6280
   1426.42395     602.0179     414.2624   1426.42395     602.0179     414.2624
   1426.40869     605.6441     415.2004   1426.40869     605.6441     415.2004
   1426.39343     608.4261     417.0115   1426.39343     608.4261     417.0115
   1426.37817     612.5676     419.7734   1426.37817     612.5676     419.7734
   1426.36292     614.2117     420.7922   1426.36292     614.2117     420.7922
   1426.34766     618.3130     422.1272   1426.34766     618.3130     422.1272
   1426.33240     620.7469     423.9991   1426.33240     620.7469     423.9991
   1426.31714     624.0559     425.3353   1426.31714     624.0559     425.3353
   1426.30188     626.9105     427.6986   1426.30188     626.9105     427.6986
   1426.28662     629.2499     428.3498   1426.28662     629.2499     428.3498
   1426.27136     632.4359     430.5454   1426.27136     632.4359     430.5454
   1426.25610     635.3799     432.5821   1426.25610     635.3799     432.5821
   1426.24084     638.7346     434.4243   1426.24084     638.7346     434.4243
   1426.22559     642.0662     434.5838   1426.22559     642.0662     434.5838
   1426.21033     645.1368     436.4563   1426.21033     645.1368     436.4563
   1426.19507     647.6867     438.3990   1426.19507     647.6867     438.3990
   1426.17981     651.0444     439.4541   1426.17981     651.0444     439.4541
   1426.16455     654.0972     441.1044   1426.16455     654.0972     441.1044
   1426.14929     656.5486     442.9166   1426.14929     656.5486     442.9166
   1426.13403     658.8588     444.3918   1426.13403     658.8588     444.3918
   1426.11877     661.9173     445.2133   1426.11877     661.9173     445.2133
   1426.10352     664.4540     446.0818   1426.10352     664.4540     446.0818
   1426.08826     667.3751     447.7610   1426.08826     667.3751     447.7610
   1426.07300     671.3513     449.1925   1426.07300     671.3513     449.1925
   1426.05774     674.7239     450.7357   1426.05774     674.7239     450.7357
   1426.04248     674.9435     451.6945   1426.04248     674.9435     451.6945
   1426.02722     679.1354     453.5849   1426.02722     679.1354     453.5849
   1426.01196     681.7772     455.1964   1426.01196     681.7772     455.1964
   1425.99670     683.8798     456.1494   1425.99670     683.8798     456.1494
   1425.98145     686.2193     456.8379   1425.98145     686.2193     456.8379
   1425.96619     688.9724     459.0235   1425.96619     688.9724     459.0235
   1425.95093     690.9096     459.1296   1425.95093     690.9096     459.1296
   1425.93567     694.5961     460.9830   1425.93567     694.5961     460.9830
   1425.92041     695.4777     461.9110   1425.92041     695.4777     461.9110
   1425.90515     699.7288     462.9934   1425.90515     699.7288     462.9934
   1425.88989     700.4047     463.5801   1425.88989     700.4047     463.5801
   1425.87463     702.1300     464.8483   1425.87463     702.1300     464.8483
   1425.85938     705.7950     466.6004   1425.85938     705.7950     466.6004
   1425.84412     710.0225     466.2820   1425.84412     710.0225     466.2820
   1425.82886     710.5673     468.3373   1425.82886     710.5673     468.3373
   1425.81360     712.6282     470.0630   1425.81360     712.6282     470.0630
   1425.79834     715.9745     470.3829   1425.79834     715.9745     470.3829
   1425.78308     717.3292     471.5606   1425.78308     717.3292     471.5606
   1425.76782     718.9064     471.8950   1425.76782     718.9064     471.8950
   1425.75256     721.2621     473.4682   1425.75256     721.2621     473.4682
   1425.73730     724.1172     474.2987   1425.73730     724.1172     474.2987
   1425.72205     724.7850     474.8809   1425.72205     724.7850     474.8809
   1425.70679     728.3689     475.6975   1425.70679     728.3689     475.6975
   1425.69153     729.1318     476.6857   1425.69153     729.1318     476.6857
   1425.67627     732.1918     477.6331   1425.67627     732.1918     477.6331
   1425.66101     733.7783     478.4395   1425.66101     733.7783     478.4395
   1425.64575     735.5964     480.5000   1425.64575     735.5964     480.5000
   1425.63049     738.0962     480.5220   1425.63049     738.0962     480.5220
   1425.61523     737.5541     481.2329   1425.61523     737.5541     481.2329
   1425.59998     741.1284     482.8619   1425.59998     741.1284     482.8619
   1425.58472     741.2409     482.5256   1425.58472     741.2409     482.5256
   1425.56946     744.1006     482.8869   1425.56946     744.1006     482.8869
   1425.55420     747.1170     484.4057   1425.55420     747.1170     484.4057
   1425.53894     747.5851     484.3171   1425.53894     747.5851     484.3171
   1425.52368     748.6874     485.6108   1425.52368     748.6874     485.6108
   1425.50842     751.5318     486.2472   1425.50842     751.5318     486.2472
   1425.49316     751.8707     486.3860   1425.49316     751.8707     486.3860
   1425.47791     752.6297     487.8890   1425.47791     752.6297     487.8890
   1425.46265     755.6453     488.3950   1425.46265     755.6453     488.3950
   1425.44739     756.6930     489.4258   1425.44739     756.6930     489.4258
   1425.43213     757.4929     488.9965   1425.43213     757.4929     488.9965
   1425.41687     760.0223     489.9954   1425.41687     760.0223     489.9954
   1425.40161     762.1359     490.1806   1425.40161     762.1359     490.1806
   1425.38635     762.0154     491.0736   1425.38635     762.0154     491.0736
   1425.37109     763.4971     491.1917   1425.37109     763.4971     491.1917
   1425.35583     765.0820     491.7336   1425.35583     765.0820     491.7336
   1425.34058     764.9822     492.4310   1425.34058     764.9822     492.4310
   1425.32532     766.7080     493.2085   1425.32532     766.7080     493.2085
   1425.31006     767.9533     493.7700   1425.31006     767.9533     493.7700
   1425.29480     769.3198     493.2934   1425.29480     769.3198     493.2934
   1425.27954     770.7385     493.7695   1425.27954     770.7385     493.7695
   1425.26428     772.6595     494.4443   1425.26428     772.6595     494.4443
   1425.24902     771.7164     495.4774   1425.24902     771.7164     495.4774
   1425.23376     772.9137     495.8549   1425.23376     772.9137     495.8549
   1425.21851     772.9647     495.8103   1425.21851     772.9647     495.8103
   1425.20325     775.2543     496.1812   1425.20325     775.2543     496.1812
   1425.18799     776.1993     496.9367   1425.18799     776.1993     496.9367
   1425.17273     777.4338     497.0528   1425.17273     777.4338     497.0528
   1425.15747     777.8907     497.8887   1425.15747     777.8907     497.8887
   1425.14221     778.3253     498.1377   1425.14221     778.3253     498.1377
   1425.12695     779.2403     499.2091   1425.12695     779.2403     499.2091
   1425.11169     780.0043     498.9718   1425.11169     780.0043     498.9718
   1425.09644     780.8715     499.3572   1425.09644     780.8715     499.3572
   1425.08118     781.9125     499.6184   1425.08118     781.9125     499.6184
   1425.06592     782.7157     499.6299   1425.06592     782.7157     499.6299
   1425.05066     782.8781     499.9872   1425.05066     782.8781     499.9872
   1425.03540     785.2006     500.6490   1425.03540     785.2006     500.6490
   1425.02014     783.7157     500.7613   1425.02014     783.7157     500.7613
   1425.00488     786.0280     501.6781   1425.00488     786.0280     501.6781
   1424.98962     785.2097     501.8167   1424.98962     785.2097     501.8167
   1424.97437     785.3522     501.7334   1424.97437     785.3522     501.7334
   1424.95911     786.1674     501.3553   1424.95911     786.1674     501.3553
   1424.94385     785.8756     502.1274   1424.94385     785.8756     502.1274
   1424.92859     785.8256     501.5027   1424.92859     785.8256     501.5027
   1424.91333     787.2578     502.2396   1424.91333     787.2578     502.2396
   1424.89807     786.7397     502.1299   1424.89807     786.7397     502.1299
   1424.88281     788.0603     501.7656   1424.88281     788.0603     501.7656
   1424.86755     787.2979     502.8057   1424.86755     787.2979     502.8057
   1424.85229     787.5366     503.1586   1424.85229     787.5366     503.1586
   1424.83704     788.6036     502.7733   1424.83704     788.6036     502.7733
   1424.82178     788.3544     503.1024   1424.82178     788.3544     503.1024
   1424.80652     788.9057     503.7530   1424.80652     788.9057     503.7530
   1424.79126     788.8995     502.7395   1424.79126     788.8995     502.7395
   1424.77600     789.3984     503.1262   1424.77600     789.3984     503.1262
   1424.76074     789.4603     504.6685   1424.76074     789.4603     504.6685
   1424.74548     788.1928     503.6053   1424.74548     788.1928     503.6053
   1424.73022     789.5015     503.6591   1424.73022     789.5015     503.6591
   1424.71497     790.1201     504.3395   1424.71497     790.1201     504.3395
   1424.69971     789.7584     503.6189   1424.69971     789.7584     503.6189
   1424.68445     789.7159     504.1588   1424.68445     789.7159     504.1588
   1424.66919     789.9373     504.5926   1424.66919     789.9373     504.5926
   1424.65393     790.2015     503.9052   1424.65393     790.2015     503.9052
   1424.63867     788.4751     504.0987   1424.63867     788.4751     504.0987
   1424.62341     790.0851     504.8271   1424.62341     790.0851     504.8271
   1424.60815     789.5421     504.2234   1424.60815     789.5421     504.2234
   1424.59290     790.5592     505.6121   1424.59290     790.5592     505.6121
   1424.57764     788.4432     504.4136   1424.57764     788.4432     504.4136
   1424.56238     788.7704     505.0586   1424.56238     788.7704     505.0586
   1424.54712     788.8392     504.7568   1424.54712     788.8392     504.7568
   1424.53186     789.2540     504.7782   1424.53186     789.2540     504.7782
   1424.51660     787.6068     505.0028   1424.51660     787.6068     505.0028
   1424.50134     788.5847     504.3385   1424.50134     788.5847     504.3385
   1424.48608     787.9086     504.3692   1424.48608     787.9086     504.3692
   1424.47083     787.6686     504.6047   1424.47083     787.6686     504.6047
   1424.45557     787.9370     504.0465   1424.45557     787.9370     504.0465
   1424.44031     787.5841     503.7843   1424.44031     787.5841     503.7843
   1424.42505     786.6819     503.7138   1424.42505     786.6819     503.7138
   1424.40979     786.4227     504.2249   1424.40979     786.4227     504.2249
   1424.39453     786.5084     505.1740   1424.39453     786.5084     505.1740
   1424.37927     785.7044     503.8571   1424.37927     785.7044     503.8571
   1424.36401     786.2085     504.2598   1424.36401     786.2085     504.2598
   1424.34875     785.3674     504.0511   1424.34875     785.3674     504.0511
   1424.33350     785.0866     503.9098   1424.33350     785.0866     503.9098
   1424.31824     784.4102     503.7665   1424.31824     784.4102     503.7665
   1424.30298     785.2183     504.3116   1424.30298     785.2183     504.3116
   1424.28772     784.0720     503.0862   1424.28772     784.0720     503.0862
   1424.27246     783.1077     503.8524   1424.27246     783.1077     503.8524
   1424.25720     785.4261     504.2752   1424.25720     785.4261     504.2752
   1424.24194     782.7563     503.0218   1424.24194     782.7563     503.0218
   1424.22668     783.8133     503.1000   1424.22668     783.8133     503.1000
   1424.21143     782.9470     503.2237   1424.21143     782.9470     503.2237
   1424.19617     781.7073     501.8660   1424.19617     781.7073     501.8660
   1424.18091     781.2104     502.2588   1424.18091     781.2104     502.2588
   1424.16565     780.8688     502.3022   1424.16565     780.8688     502.3022
