#     FILENAME=!Skynet_57528_lach-cc-78_20515_20924.cyb.fits
#     BASENAME=Skynet_57528_lach-cc-78_20515_20924
#     SRC_NAME=lach-cc-78
#     OBSERVER=ccmadison16_9505
#     DATE_OBS=2016-05-20T15:57:37.430
#        OBSID=20515
#      SCANNUM=20924
#          MJD=57528.6661
#          UTC=57547
#     SCANTYPE=track
#     DATAMODE=HIRES
#     TUNEFREQ=1420.0000
# Actual_FREQ1=1420.0000
# Actual_FREQ2=1420.0000
#    LO1Tuning=6870.000
#     RFFILTER=1355_1435
#        OBSBW=-15.6250
#        NCHAN=1024 
#        FOCUS=37.0709
#           RA=20:29:38.24
#          DEC=39:03:17.53
#      RA(hrs)=20.494000
#     DEC(deg)=39.054900
#    AZIM(deg)=302.297
#    ELEV(deg)=22.470
#     IFattens=12.00, 10.00
#      WARNING=None
#    TCAL_XL1=7.9635
#    TCAL_YR1=9.1340
#    TCAL_XL2=7.9635
#    TCAL_YR2=9.1340
#     TRX_XL1=11.7060
#     TRX_YR1=11.7060
#     TRX_XL2=11.7060
#     TRX_YR2=11.7060
#        TAVE=1.0000
#Freq1(MHz)          XL1          YR1  Freq2(MHz)          XL2          YR2 

   1427.81250     363.9738     244.9362   1427.81250     363.9738     244.9362
   1427.79724     364.1852     245.1485   1427.79724     364.1852     245.1485
   1427.78198     365.1835     246.1309   1427.78198     365.1835     246.1309
   1427.76672     366.0207     246.4589   1427.76672     366.0207     246.4589
   1427.75146     366.4864     246.7243   1427.75146     366.4864     246.7243
   1427.73621     367.7397     247.4635   1427.73621     367.7397     247.4635
   1427.72095     367.9955     248.5479   1427.72095     367.9955     248.5479
   1427.70569     369.2721     249.3213   1427.70569     369.2721     249.3213
   1427.69043     369.9453     249.8296   1427.69043     369.9453     249.8296
   1427.67517     371.4112     250.5511   1427.67517     371.4112     250.5511
   1427.65991     371.9020     251.5115   1427.65991     371.9020     251.5115
   1427.64465     372.8356     252.3416   1427.64465     372.8356     252.3416
   1427.62939     374.8878     253.4044   1427.62939     374.8878     253.4044
   1427.61414     375.2955     254.6127   1427.61414     375.2955     254.6127
   1427.59888     376.2269     255.3549   1427.59888     376.2269     255.3549
   1427.58362     378.2192     256.5568   1427.58362     378.2192     256.5568
   1427.56836     379.2838     257.3126   1427.56836     379.2838     257.3126
   1427.55310     380.9598     258.4437   1427.55310     380.9598     258.4437
   1427.53784     382.6895     259.5634   1427.53784     382.6895     259.5634
   1427.52258     383.3984     260.8667   1427.52258     383.3984     260.8667
   1427.50732     385.2837     261.8397   1427.50732     385.2837     261.8397
   1427.49207     386.7197     262.9833   1427.49207     386.7197     262.9833
   1427.47681     387.7753     264.2947   1427.47681     387.7753     264.2947
   1427.46155     390.2167     265.6668   1427.46155     390.2167     265.6668
   1427.44629     391.2953     267.0305   1427.44629     391.2953     267.0305
   1427.43103     393.8455     268.3071   1427.43103     393.8455     268.3071
   1427.41577     395.2982     269.4635   1427.41577     395.2982     269.4635
   1427.40051     397.0967     271.3810   1427.40051     397.0967     271.3810
   1427.38525     398.8863     272.1806   1427.38525     398.8863     272.1806
   1427.37000     401.7954     273.7390   1427.37000     401.7954     273.7390
   1427.35474     403.1935     274.7729   1427.35474     403.1935     274.7729
   1427.33948     405.3920     276.5271   1427.33948     405.3920     276.5271
   1427.32422     406.9826     278.0497   1427.32422     406.9826     278.0497
   1427.30896     408.8154     279.5274   1427.30896     408.8154     279.5274
   1427.29370     411.5663     281.6003   1427.29370     411.5663     281.6003
   1427.27844     413.9936     282.8638   1427.27844     413.9936     282.8638
   1427.26318     416.3763     284.9448   1427.26318     416.3763     284.9448
   1427.24792     417.7934     286.1311   1427.24792     417.7934     286.1311
   1427.23267     420.4965     288.0297   1427.23267     420.4965     288.0297
   1427.21741     422.5572     289.8171   1427.21741     422.5572     289.8171
   1427.20215     425.1826     291.1045   1427.20215     425.1826     291.1045
   1427.18689     427.7604     292.8892   1427.18689     427.7604     292.8892
   1427.17163     429.8267     295.4189   1427.17163     429.8267     295.4189
   1427.15637     432.5620     296.6506   1427.15637     432.5620     296.6506
   1427.14111     434.3964     298.6998   1427.14111     434.3964     298.6998
   1427.12585     437.4793     300.4305   1427.12585     437.4793     300.4305
   1427.11060     439.5571     302.1599   1427.11060     439.5571     302.1599
   1427.09534     442.6232     303.9830   1427.09534     442.6232     303.9830
   1427.08008     445.3055     305.9022   1427.08008     445.3055     305.9022
   1427.06482     448.0055     307.4980   1427.06482     448.0055     307.4980
   1427.04956     451.0520     309.2754   1427.04956     451.0520     309.2754
   1427.03430     452.5725     311.4413   1427.03430     452.5725     311.4413
   1427.01904     455.6107     313.4481   1427.01904     455.6107     313.4481
   1427.00378     458.8782     315.7008   1427.00378     458.8782     315.7008
   1426.98853     460.5838     316.9825   1426.98853     460.5838     316.9825
   1426.97327     463.7557     319.2147   1426.97327     463.7557     319.2147
   1426.95801     466.9766     321.5099   1426.95801     466.9766     321.5099
   1426.94275     469.9139     323.4240   1426.94275     469.9139     323.4240
   1426.92749     472.6914     325.4865   1426.92749     472.6914     325.4865
   1426.91223     474.4632     327.1871   1426.91223     474.4632     327.1871
   1426.89697     478.3280     328.4609   1426.89697     478.3280     328.4609
   1426.88171     481.0203     331.1575   1426.88171     481.0203     331.1575
   1426.86646     484.3726     332.9776   1426.86646     484.3726     332.9776
   1426.85120     486.8000     335.6801   1426.85120     486.8000     335.6801
   1426.83594     488.7594     337.4406   1426.83594     488.7594     337.4406
   1426.82068     492.2404     339.2805   1426.82068     492.2404     339.2805
   1426.80542     495.8885     341.6852   1426.80542     495.8885     341.6852
   1426.79016     497.5573     344.2742   1426.79016     497.5573     344.2742
   1426.77490     500.5558     345.4234   1426.77490     500.5558     345.4234
   1426.75964     503.8961     346.9151   1426.75964     503.8961     346.9151
   1426.74438     507.1109     349.8752   1426.74438     507.1109     349.8752
   1426.72913     509.4980     352.0414   1426.72913     509.4980     352.0414
   1426.71387     512.6177     354.0347   1426.71387     512.6177     354.0347
   1426.69861     516.6099     355.9442   1426.69861     516.6099     355.9442
   1426.68335     518.4031     358.0785   1426.68335     518.4031     358.0785
   1426.66809     521.9660     359.5700   1426.66809     521.9660     359.5700
   1426.65283     524.6252     362.6477   1426.65283     524.6252     362.6477
   1426.63757     528.3454     363.6409   1426.63757     528.3454     363.6409
   1426.62231     530.4792     366.6452   1426.62231     530.4792     366.6452
   1426.60706     533.6812     367.5717   1426.60706     533.6812     367.5717
   1426.59180     537.1595     370.0635   1426.59180     537.1595     370.0635
   1426.57654     539.1171     371.8990   1426.57654     539.1171     371.8990
   1426.56128     542.4890     374.0578   1426.56128     542.4890     374.0578
   1426.54602     545.3336     375.9361   1426.54602     545.3336     375.9361
   1426.53076     548.6834     378.3102   1426.53076     548.6834     378.3102
   1426.51550     551.3058     380.2252   1426.51550     551.3058     380.2252
   1426.50024     553.5774     382.1172   1426.50024     553.5774     382.1172
   1426.48499     556.1010     383.7002   1426.48499     556.1010     383.7002
   1426.46973     559.5983     386.3754   1426.46973     559.5983     386.3754
   1426.45447     563.9513     388.2084   1426.45447     563.9513     388.2084
   1426.43921     565.3729     389.2688   1426.43921     565.3729     389.2688
   1426.42395     568.5771     392.0780   1426.42395     568.5771     392.0780
   1426.40869     571.4745     393.8356   1426.40869     571.4745     393.8356
   1426.39343     574.9391     396.0944   1426.39343     574.9391     396.0944
   1426.37817     577.2265     397.4976   1426.37817     577.2265     397.4976
   1426.36292     580.3725     399.0147   1426.36292     580.3725     399.0147
   1426.34766     582.4632     401.0550   1426.34766     582.4632     401.0550
   1426.33240     586.0788     402.8559   1426.33240     586.0788     402.8559
   1426.31714     589.2844     405.2050   1426.31714     589.2844     405.2050
   1426.30188     591.4221     406.8140   1426.30188     591.4221     406.8140
   1426.28662     594.0182     408.5957   1426.28662     594.0182     408.5957
   1426.27136     596.8870     409.7485   1426.27136     596.8870     409.7485
   1426.25610     598.6243     412.2443   1426.25610     598.6243     412.2443
   1426.24084     601.3790     414.2015   1426.24084     601.3790     414.2015
   1426.22559     604.8535     415.7691   1426.22559     604.8535     415.7691
   1426.21033     607.7526     418.0314   1426.21033     607.7526     418.0314
   1426.19507     608.6900     419.0821   1426.19507     608.6900     419.0821
   1426.17981     612.5049     421.0044   1426.17981     612.5049     421.0044
   1426.16455     614.9076     423.2932   1426.16455     614.9076     423.2932
   1426.14929     616.7990     424.8692   1426.14929     616.7990     424.8692
   1426.13403     620.8047     425.6564   1426.13403     620.8047     425.6564
   1426.11877     621.7642     426.8553   1426.11877     621.7642     426.8553
   1426.10352     624.6203     428.0391   1426.10352     624.6203     428.0391
   1426.08826     627.1628     429.9053   1426.08826     627.1628     429.9053
   1426.07300     629.3564     431.9374   1426.07300     629.3564     431.9374
   1426.05774     632.5601     433.6955   1426.05774     632.5601     433.6955
   1426.04248     634.0449     434.6219   1426.04248     634.0449     434.6219
   1426.02722     636.9310     436.8915   1426.02722     636.9310     436.8915
   1426.01196     638.0408     438.0381   1426.01196     638.0408     438.0381
   1425.99670     641.2668     439.8069   1425.99670     641.2668     439.8069
   1425.98145     643.7984     441.2410   1425.98145     643.7984     441.2410
   1425.96619     645.9957     442.1626   1425.96619     645.9957     442.1626
   1425.95093     648.3862     443.7749   1425.95093     648.3862     443.7749
   1425.93567     650.6177     445.2279   1425.93567     650.6177     445.2279
   1425.92041     652.3118     446.2594   1425.92041     652.3118     446.2594
   1425.90515     653.8536     447.6922   1425.90515     653.8536     447.6922
   1425.88989     658.1909     449.7905   1425.88989     658.1909     449.7905
   1425.87463     658.8193     450.3076   1425.87463     658.8193     450.3076
   1425.85938     661.1591     452.2479   1425.85938     661.1591     452.2479
   1425.84412     664.1346     453.9441   1425.84412     664.1346     453.9441
   1425.82886     666.8651     455.2672   1425.82886     666.8651     455.2672
   1425.81360     666.9915     456.0612   1425.81360     666.9915     456.0612
   1425.79834     668.5844     457.9763   1425.79834     668.5844     457.9763
   1425.78308     670.8868     458.2319   1425.78308     670.8868     458.2319
   1425.76782     672.9155     460.2306   1425.76782     672.9155     460.2306
   1425.75256     674.7256     460.5737   1425.75256     674.7256     460.5737
   1425.73730     677.1295     462.5916   1425.73730     677.1295     462.5916
   1425.72205     678.5736     463.8885   1425.72205     678.5736     463.8885
   1425.70679     680.0789     464.4031   1425.70679     680.0789     464.4031
   1425.69153     681.5678     465.2521   1425.69153     681.5678     465.2521
   1425.67627     682.8924     466.9842   1425.67627     682.8924     466.9842
   1425.66101     686.0355     468.1134   1425.66101     686.0355     468.1134
   1425.64575     686.4261     469.3855   1425.64575     686.4261     469.3855
   1425.63049     688.1658     470.3457   1425.63049     688.1658     470.3457
   1425.61523     690.0558     471.5544   1425.61523     690.0558     471.5544
   1425.59998     691.6316     472.3472   1425.59998     691.6316     472.3472
   1425.58472     692.2629     473.3481   1425.58472     692.2629     473.3481
   1425.56946     693.9935     473.8687   1425.56946     693.9935     473.8687
   1425.55420     695.6377     475.2884   1425.55420     695.6377     475.2884
   1425.53894     697.2559     476.0174   1425.53894     697.2559     476.0174
   1425.52368     698.5201     477.4674   1425.52368     698.5201     477.4674
   1425.50842     699.7190     478.5648   1425.50842     699.7190     478.5648
   1425.49316     701.0469     478.8850   1425.49316     701.0469     478.8850
   1425.47791     703.2330     480.2367   1425.47791     703.2330     480.2367
   1425.46265     703.9910     481.2143   1425.46265     703.9910     481.2143
   1425.44739     704.3121     481.8242   1425.44739     704.3121     481.8242
   1425.43213     705.8177     482.6749   1425.43213     705.8177     482.6749
   1425.41687     707.3563     483.8737   1425.41687     707.3563     483.8737
   1425.40161     708.7767     484.5578   1425.40161     708.7767     484.5578
   1425.38635     709.1003     485.8659   1425.38635     709.1003     485.8659
   1425.37109     709.9020     486.6468   1425.37109     709.9020     486.6468
   1425.35583     711.6320     487.5636   1425.35583     711.6320     487.5636
   1425.34058     712.8421     488.0769   1425.34058     712.8421     488.0769
   1425.32532     713.9133     488.6044   1425.32532     713.9133     488.6044
   1425.31006     715.8384     490.2914   1425.31006     715.8384     490.2914
   1425.29480     715.9821     491.1231   1425.29480     715.9821     491.1231
   1425.27954     717.7122     491.9539   1425.27954     717.7122     491.9539
   1425.26428     717.9348     492.5817   1425.26428     717.9348     492.5817
   1425.24902     720.4565     492.5273   1425.24902     720.4565     492.5273
   1425.23376     719.6745     493.3945   1425.23376     719.6745     493.3945
   1425.21851     719.6929     494.7215   1425.21851     719.6929     494.7215
   1425.20325     721.4783     494.9051   1425.20325     721.4783     494.9051
   1425.18799     721.4610     495.8610   1425.18799     721.4610     495.8610
   1425.17273     723.3440     496.2642   1425.17273     723.3440     496.2642
   1425.15747     723.5441     497.1783   1425.15747     723.5441     497.1783
   1425.14221     724.6591     497.9755   1425.14221     724.6591     497.9755
   1425.12695     725.2214     498.6761   1425.12695     725.2214     498.6761
   1425.11169     726.5027     499.7873   1425.11169     726.5027     499.7873
   1425.09644     727.4194     500.3896   1425.09644     727.4194     500.3896
   1425.08118     728.0300     500.8913   1425.08118     728.0300     500.8913
   1425.06592     728.9609     501.1151   1425.06592     728.9609     501.1151
   1425.05066     727.5359     502.4705   1425.05066     727.5359     502.4705
   1425.03540     729.5226     502.8951   1425.03540     729.5226     502.8951
   1425.02014     729.5598     503.1656   1425.02014     729.5598     503.1656
   1425.00488     730.5921     504.2151   1425.00488     730.5921     504.2151
   1424.98962     731.5154     504.8539   1424.98962     731.5154     504.8539
   1424.97437     730.7640     505.3203   1424.97437     730.7640     505.3203
   1424.95911     731.7130     506.0402   1424.95911     731.7130     506.0402
   1424.94385     733.4868     506.4005   1424.94385     733.4868     506.4005
   1424.92859     733.0402     507.2231   1424.92859     733.0402     507.2231
   1424.91333     733.5026     508.4097   1424.91333     733.5026     508.4097
   1424.89807     733.9428     508.9600   1424.89807     733.9428     508.9600
   1424.88281     734.3440     509.3157   1424.88281     734.3440     509.3157
   1424.86755     733.7974     509.8914   1424.86755     733.7974     509.8914
   1424.85229     733.9271     510.6077   1424.85229     733.9271     510.6077
   1424.83704     734.8970     511.6183   1424.83704     734.8970     511.6183
   1424.82178     735.4609     511.0912   1424.82178     735.4609     511.0912
   1424.80652     736.1683     511.9444   1424.80652     736.1683     511.9444
   1424.79126     735.8875     511.6349   1424.79126     735.8875     511.6349
   1424.77600     735.5421     511.9800   1424.77600     735.5421     511.9800
   1424.76074     734.8746     513.6459   1424.76074     734.8746     513.6459
   1424.74548     735.2893     514.1223   1424.74548     735.2893     514.1223
   1424.73022     736.3828     514.8191   1424.73022     736.3828     514.8191
   1424.71497     737.3061     515.1881   1424.71497     737.3061     515.1881
   1424.69971     736.0939     515.2883   1424.69971     736.0939     515.2883
   1424.68445     737.2673     516.5524   1424.68445     737.2673     516.5524
   1424.66919     736.8801     516.9977   1424.66919     736.8801     516.9977
   1424.65393     737.3736     517.0701   1424.65393     737.3736     517.0701
   1424.63867     737.6661     517.1261   1424.63867     737.6661     517.1261
   1424.62341     735.9529     518.6482   1424.62341     735.9529     518.6482
   1424.60815     736.6478     518.3174   1424.60815     736.6478     518.3174
   1424.59290     736.3230     518.7610   1424.59290     736.3230     518.7610
   1424.57764     737.4354     519.5085   1424.57764     737.4354     519.5085
   1424.56238     738.0806     519.9594   1424.56238     738.0806     519.9594
   1424.54712     736.9510     519.8616   1424.54712     736.9510     519.8616
   1424.53186     737.8098     521.3262   1424.53186     737.8098     521.3262
   1424.51660     737.4152     521.4989   1424.51660     737.4152     521.4989
   1424.50134     737.0234     522.6686   1424.50134     737.0234     522.6686
   1424.48608     738.3023     522.2570   1424.48608     738.3023     522.2570
   1424.47083     737.2886     523.7155   1424.47083     737.2886     523.7155
   1424.45557     737.2971     523.2386   1424.45557     737.2971     523.2386
   1424.44031     736.4509     523.9116   1424.44031     736.4509     523.9116
   1424.42505     737.5646     524.3821   1424.42505     737.5646     524.3821
   1424.40979     737.0349     524.8588   1424.40979     737.0349     524.8588
   1424.39453     738.3750     525.4279   1424.39453     738.3750     525.4279
   1424.37927     738.8518     526.2825   1424.37927     738.8518     526.2825
   1424.36401     737.7620     525.8864   1424.36401     737.7620     525.8864
   1424.34875     737.8290     526.5838   1424.34875     737.8290     526.5838
   1424.33350     738.3466     527.1184   1424.33350     738.3466     527.1184
   1424.31824     737.9407     527.7078   1424.31824     737.9407     527.7078
   1424.30298     737.7599     528.3661   1424.30298     737.7599     528.3661
   1424.28772     736.5200     528.7233   1424.28772     736.5200     528.7233
   1424.27246     737.2771     529.3864   1424.27246     737.2771     529.3864
   1424.25720     737.6843     529.5106   1424.25720     737.6843     529.5106
   1424.24194     736.4962     530.1453   1424.24194     736.4962     530.1453
   1424.22668     736.2863     530.4902   1424.22668     736.2863     530.4902
   1424.21143     736.8932     530.7264   1424.21143     736.8932     530.7264
   1424.19617     735.6611     531.7578   1424.19617     735.6611     531.7578
   1424.18091     735.5863     530.9127   1424.18091     735.5863     530.9127
   1424.16565     736.0644     532.1621   1424.16565     736.0644     532.1621
