#     FILENAME=!Skynet_57528_lach-hhg-107_20367_20914.cyb.fits
#     BASENAME=Skynet_57528_lach-hhg-107_20367_20914
#     SRC_NAME=lach-hhg-107
#     OBSERVER=hhgmadison16_9500
#     DATE_OBS=2016-05-20T15:37:24.500
#        OBSID=20367
#      SCANNUM=20914
#          MJD=57528.6520
#          UTC=56334
#     SCANTYPE=track
#     DATAMODE=HIRES
#     TUNEFREQ=1420.0000
# Actual_FREQ1=1420.0000
# Actual_FREQ2=1420.0000
#    LO1Tuning=6870.000
#     RFFILTER=1355_1435
#        OBSBW=-15.6250
#        NCHAN=1024 
#        FOCUS=37.0709
#           RA=22:43:19.73
#          DEC=58:50:54.59
#      RA(hrs)=22.722100
#     DEC(deg)=58.848500
#    AZIM(deg)=318.776
#    ELEV(deg)=51.139
#     IFattens=10.00, 9.00
#      WARNING=None
#    TCAL_XL1=7.9635
#    TCAL_YR1=9.1340
#    TCAL_XL2=7.9635
#    TCAL_YR2=9.1340
#     TRX_XL1=11.7060
#     TRX_YR1=11.7060
#     TRX_XL2=11.7060
#     TRX_YR2=11.7060
#        TAVE=1.0000
#Freq1(MHz)          XL1          YR1  Freq2(MHz)          XL2          YR2 

   1427.81250     375.2050     287.0545   1427.81250     375.2050     287.0545
   1427.79724     376.5778     287.9376   1427.79724     376.5778     287.9376
   1427.78198     376.3339     288.1226   1427.78198     376.3339     288.1226
   1427.76672     376.6463     289.6203   1427.76672     376.6463     289.6203
   1427.75146     378.1456     290.2470   1427.75146     378.1456     290.2470
   1427.73621     379.2574     291.3493   1427.73621     379.2574     291.3493
   1427.72095     380.2905     292.5012   1427.72095     380.2905     292.5012
   1427.70569     381.1108     293.5557   1427.70569     381.1108     293.5557
   1427.69043     381.8389     294.1295   1427.69043     381.8389     294.1295
   1427.67517     382.4729     295.8868   1427.67517     382.4729     295.8868
   1427.65991     383.9150     296.6829   1427.65991     383.9150     296.6829
   1427.64465     385.5378     297.9598   1427.64465     385.5378     297.9598
   1427.62939     387.2810     299.2195   1427.62939     387.2810     299.2195
   1427.61414     387.9419     300.6377   1427.61414     387.9419     300.6377
   1427.59888     389.4204     301.7764   1427.59888     389.4204     301.7764
   1427.58362     390.3865     302.9662   1427.58362     390.3865     302.9662
   1427.56836     392.5854     304.0824   1427.56836     392.5854     304.0824
   1427.55310     393.6165     305.6525   1427.55310     393.6165     305.6525
   1427.53784     394.9769     307.0643   1427.53784     394.9769     307.0643
   1427.52258     396.0511     308.3056   1427.52258     396.0511     308.3056
   1427.50732     399.0947     309.9307   1427.50732     399.0947     309.9307
   1427.49207     400.0107     311.3286   1427.49207     400.0107     311.3286
   1427.47681     402.2251     313.5137   1427.47681     402.2251     313.5137
   1427.46155     403.7950     315.0540   1427.46155     403.7950     315.0540
   1427.44629     405.9429     316.2199   1427.44629     405.9429     316.2199
   1427.43103     407.2638     317.3967   1427.43103     407.2638     317.3967
   1427.41577     409.7196     320.0952   1427.41577     409.7196     320.0952
   1427.40051     411.8733     321.6326   1427.40051     411.8733     321.6326
   1427.38525     413.4187     323.8873   1427.38525     413.4187     323.8873
   1427.37000     414.7573     324.5984   1427.37000     414.7573     324.5984
   1427.35474     417.8113     326.7952   1427.35474     417.8113     326.7952
   1427.33948     419.9684     328.7899   1427.33948     419.9684     328.7899
   1427.32422     421.8408     330.8326   1427.32422     421.8408     330.8326
   1427.30896     424.7877     332.1204   1427.30896     424.7877     332.1204
   1427.29370     426.0706     334.2369   1427.29370     426.0706     334.2369
   1427.27844     428.4120     336.3376   1427.27844     428.4120     336.3376
   1427.26318     430.4721     337.9524   1427.26318     430.4721     337.9524
   1427.24792     433.7812     340.2803   1427.24792     433.7812     340.2803
   1427.23267     435.8452     342.0730   1427.23267     435.8452     342.0730
   1427.21741     438.2501     343.9773   1427.21741     438.2501     343.9773
   1427.20215     441.0139     346.2992   1427.20215     441.0139     346.2992
   1427.18689     443.1310     348.3243   1427.18689     443.1310     348.3243
   1427.17163     445.6645     350.5894   1427.17163     445.6645     350.5894
   1427.15637     448.4449     352.6140   1427.15637     448.4449     352.6140
   1427.14111     451.5868     354.6569   1427.14111     451.5868     354.6569
   1427.12585     453.4264     356.4635   1427.12585     453.4264     356.4635
   1427.11060     455.9066     358.0644   1427.11060     455.9066     358.0644
   1427.09534     458.7620     361.2950   1427.09534     458.7620     361.2950
   1427.08008     461.4487     363.6870   1427.08008     461.4487     363.6870
   1427.06482     464.0588     365.8669   1427.06482     464.0588     365.8669
   1427.04956     467.6003     367.7369   1427.04956     467.6003     367.7369
   1427.03430     469.6974     369.9610   1427.03430     469.6974     369.9610
   1427.01904     472.7242     371.9230   1427.01904     472.7242     371.9230
   1427.00378     475.0236     374.5046   1427.00378     475.0236     374.5046
   1426.98853     478.9846     377.4767   1426.98853     478.9846     377.4767
   1426.97327     480.8413     378.6804   1426.97327     480.8413     378.6804
   1426.95801     484.1008     382.0027   1426.95801     484.1008     382.0027
   1426.94275     486.6038     383.4098   1426.94275     486.6038     383.4098
   1426.92749     490.8552     385.2910   1426.92749     490.8552     385.2910
   1426.91223     492.9011     387.8674   1426.91223     492.9011     387.8674
   1426.89697     495.9127     390.2382   1426.89697     495.9127     390.2382
   1426.88171     498.7637     393.1508   1426.88171     498.7637     393.1508
   1426.86646     501.6721     395.1886   1426.86646     501.6721     395.1886
   1426.85120     504.5146     397.7907   1426.85120     504.5146     397.7907
   1426.83594     507.6094     400.2839   1426.83594     507.6094     400.2839
   1426.82068     510.7359     402.5722   1426.82068     510.7359     402.5722
   1426.80542     514.2332     404.4340   1426.80542     514.2332     404.4340
   1426.79016     517.4050     406.7378   1426.79016     517.4050     406.7378
   1426.77490     520.1909     409.4363   1426.77490     520.1909     409.4363
   1426.75964     522.5742     411.5350   1426.75964     522.5742     411.5350
   1426.74438     526.6385     413.4596   1426.74438     526.6385     413.4596
   1426.72913     530.3126     415.9937   1426.72913     530.3126     415.9937
   1426.71387     533.2903     419.0677   1426.71387     533.2903     419.0677
   1426.69861     535.7034     420.7198   1426.69861     535.7034     420.7198
   1426.68335     539.1474     422.9068   1426.68335     539.1474     422.9068
   1426.66809     541.8370     425.8103   1426.66809     541.8370     425.8103
   1426.65283     543.7881     427.8145   1426.65283     543.7881     427.8145
   1426.63757     548.6757     429.8204   1426.63757     548.6757     429.8204
   1426.62231     551.9952     433.5721   1426.62231     551.9952     433.5721
   1426.60706     553.7452     435.0935   1426.60706     553.7452     435.0935
   1426.59180     557.1035     437.1907   1426.59180     557.1035     437.1907
   1426.57654     559.8140     439.9668   1426.57654     559.8140     439.9668
   1426.56128     563.2304     441.7646   1426.56128     563.2304     441.7646
   1426.54602     566.2117     443.7019   1426.54602     566.2117     443.7019
   1426.53076     569.4861     445.3135   1426.53076     569.4861     445.3135
   1426.51550     572.0015     448.9563   1426.51550     572.0015     448.9563
   1426.50024     575.1397     450.0789   1426.50024     575.1397     450.0789
   1426.48499     578.3716     452.8303   1426.48499     578.3716     452.8303
   1426.46973     580.8573     455.4293   1426.46973     580.8573     455.4293
   1426.45447     583.5374     457.2956   1426.45447     583.5374     457.2956
   1426.43921     587.0323     459.6093   1426.43921     587.0323     459.6093
   1426.42395     590.5388     461.2312   1426.42395     590.5388     461.2312
   1426.40869     593.0234     463.3890   1426.40869     593.0234     463.3890
   1426.39343     596.0944     465.8303   1426.39343     596.0944     465.8303
   1426.37817     598.1580     468.4690   1426.37817     598.1580     468.4690
   1426.36292     601.6084     470.1950   1426.36292     601.6084     470.1950
   1426.34766     605.0457     472.2569   1426.34766     605.0457     472.2569
   1426.33240     607.8428     473.9608   1426.33240     607.8428     473.9608
   1426.31714     611.4753     476.6999   1426.31714     611.4753     476.6999
   1426.30188     614.7100     478.7641   1426.30188     614.7100     478.7641
   1426.28662     616.7238     480.5804   1426.28662     616.7238     480.5804
   1426.27136     619.3484     483.4285   1426.27136     619.3484     483.4285
   1426.25610     620.8816     484.1922   1426.25610     620.8816     484.1922
   1426.24084     624.2436     486.5999   1426.24084     624.2436     486.5999
   1426.22559     627.6135     487.5815   1426.22559     627.6135     487.5815
   1426.21033     629.2070     490.8736   1426.21033     629.2070     490.8736
   1426.19507     633.7739     492.9292   1426.19507     633.7739     492.9292
   1426.17981     635.5156     493.3859   1426.17981     635.5156     493.3859
   1426.16455     638.0638     496.6316   1426.16455     638.0638     496.6316
   1426.14929     640.8396     498.8260   1426.14929     640.8396     498.8260
   1426.13403     643.2062     500.3875   1426.13403     643.2062     500.3875
   1426.11877     646.3826     501.4124   1426.11877     646.3826     501.4124
   1426.10352     647.9013     503.4198   1426.10352     647.9013     503.4198
   1426.08826     650.6536     505.2372   1426.08826     650.6536     505.2372
   1426.07300     653.9924     506.8903   1426.07300     653.9924     506.8903
   1426.05774     656.2740     508.4494   1426.05774     656.2740     508.4494
   1426.04248     659.3554     510.9796   1426.04248     659.3554     510.9796
   1426.02722     660.8906     511.9875   1426.02722     660.8906     511.9875
   1426.01196     664.3561     513.8788   1426.01196     664.3561     513.8788
   1425.99670     665.8093     516.1103   1425.99670     665.8093     516.1103
   1425.98145     669.3129     517.6202   1425.98145     669.3129     517.6202
   1425.96619     670.5808     519.3132   1425.96619     670.5808     519.3132
   1425.95093     672.9360     520.6293   1425.95093     672.9360     520.6293
   1425.93567     675.2523     522.1006   1425.93567     675.2523     522.1006
   1425.92041     677.4529     523.7079   1425.92041     677.4529     523.7079
   1425.90515     679.3459     525.8462   1425.90515     679.3459     525.8462
   1425.88989     681.8528     526.9101   1425.88989     681.8528     526.9101
   1425.87463     683.6990     529.3273   1425.87463     683.6990     529.3273
   1425.85938     685.9186     530.4823   1425.85938     685.9186     530.4823
   1425.84412     687.7325     532.0667   1425.84412     687.7325     532.0667
   1425.82886     689.6775     533.8480   1425.82886     689.6775     533.8480
   1425.81360     692.6284     535.7576   1425.81360     692.6284     535.7576
   1425.79834     693.9079     537.0820   1425.79834     693.9079     537.0820
   1425.78308     696.3453     537.6439   1425.78308     696.3453     537.6439
   1425.76782     698.3893     539.8046   1425.76782     698.3893     539.8046
   1425.75256     700.9632     541.2098   1425.75256     700.9632     541.2098
   1425.73730     700.4176     542.0362   1425.73730     700.4176     542.0362
   1425.72205     703.9360     543.4489   1425.72205     703.9360     543.4489
   1425.70679     705.6887     545.7569   1425.70679     705.6887     545.7569
   1425.69153     706.8237     546.3704   1425.69153     706.8237     546.3704
   1425.67627     709.4000     548.1760   1425.67627     709.4000     548.1760
   1425.66101     711.1492     548.9098   1425.66101     711.1492     548.9098
   1425.64575     712.1423     550.8306   1425.64575     712.1423     550.8306
   1425.63049     713.9431     552.1055   1425.63049     713.9431     552.1055
   1425.61523     716.0773     554.3148   1425.61523     716.0773     554.3148
   1425.59998     717.8561     554.1636   1425.59998     717.8561     554.1636
   1425.58472     717.7912     556.2936   1425.58472     717.7912     556.2936
   1425.56946     720.9272     558.3212   1425.56946     720.9272     558.3212
   1425.55420     721.7019     558.9976   1425.55420     721.7019     558.9976
   1425.53894     723.7224     560.1801   1425.53894     723.7224     560.1801
   1425.52368     724.9166     561.0363   1425.52368     724.9166     561.0363
   1425.50842     724.9255     561.3935   1425.50842     724.9255     561.3935
   1425.49316     727.6198     565.2148   1425.49316     727.6198     565.2148
   1425.47791     728.1086     565.1369   1425.47791     728.1086     565.1369
   1425.46265     729.7790     565.8793   1425.46265     729.7790     565.8793
   1425.44739     730.8105     566.4651   1425.44739     730.8105     566.4651
   1425.43213     732.3467     567.7583   1425.43213     732.3467     567.7583
   1425.41687     733.5763     569.7533   1425.41687     733.5763     569.7533
   1425.40161     734.4762     570.5981   1425.40161     734.4762     570.5981
   1425.38635     734.5872     571.6879   1425.38635     734.5872     571.6879
   1425.37109     736.6431     571.8281   1425.37109     736.6431     571.8281
   1425.35583     737.6509     573.5354   1425.35583     737.6509     573.5354
   1425.34058     739.9470     574.0956   1425.34058     739.9470     574.0956
   1425.32532     740.3690     575.5979   1425.32532     740.3690     575.5979
   1425.31006     742.0378     575.7441   1425.31006     742.0378     575.7441
   1425.29480     741.9437     578.1252   1425.29480     741.9437     578.1252
   1425.27954     743.1011     579.2098   1425.27954     743.1011     579.2098
   1425.26428     744.0541     580.4170   1425.26428     744.0541     580.4170
   1425.24902     744.0549     581.1919   1425.24902     744.0549     581.1919
   1425.23376     744.9164     581.6401   1425.23376     744.9164     581.6401
   1425.21851     746.8697     582.7065   1425.21851     746.8697     582.7065
   1425.20325     747.2599     583.1531   1425.20325     747.2599     583.1531
   1425.18799     748.7931     583.7749   1425.18799     748.7931     583.7749
   1425.17273     748.4830     585.8250   1425.17273     748.4830     585.8250
   1425.15747     749.6333     586.5696   1425.15747     749.6333     586.5696
   1425.14221     750.6630     586.8531   1425.14221     750.6630     586.8531
   1425.12695     750.8797     587.8445   1425.12695     750.8797     587.8445
   1425.11169     751.0821     589.4813   1425.11169     751.0821     589.4813
   1425.09644     752.7576     590.2397   1425.09644     752.7576     590.2397
   1425.08118     751.3849     590.4764   1425.08118     751.3849     590.4764
   1425.06592     753.5961     591.4119   1425.06592     753.5961     591.4119
   1425.05066     755.0207     592.4390   1425.05066     755.0207     592.4390
   1425.03540     754.0179     593.4415   1425.03540     754.0179     593.4415
   1425.02014     755.0709     594.7332   1425.02014     755.0709     594.7332
   1425.00488     755.2004     596.0501   1425.00488     755.2004     596.0501
   1424.98962     757.0665     596.2667   1424.98962     757.0665     596.2667
   1424.97437     755.9626     597.8228   1424.97437     755.9626     597.8228
   1424.95911     755.5657     598.2220   1424.95911     755.5657     598.2220
   1424.94385     757.1073     598.7587   1424.94385     757.1073     598.7587
   1424.92859     756.2669     599.2659   1424.92859     756.2669     599.2659
   1424.91333     757.4745     600.0745   1424.91333     757.4745     600.0745
   1424.89807     757.9453     600.6828   1424.89807     757.9453     600.6828
   1424.88281     757.5437     600.7888   1424.88281     757.5437     600.7888
   1424.86755     757.9869     601.8413   1424.86755     757.9869     601.8413
   1424.85229     758.6661     602.9289   1424.85229     758.6661     602.9289
   1424.83704     758.0517     603.9756   1424.83704     758.0517     603.9756
   1424.82178     758.8898     603.0860   1424.82178     758.8898     603.0860
   1424.80652     758.1565     604.3480   1424.80652     758.1565     604.3480
   1424.79126     759.1788     605.3991   1424.79126     759.1788     605.3991
   1424.77600     759.6712     605.4289   1424.77600     759.6712     605.4289
   1424.76074     760.2272     605.4329   1424.76074     760.2272     605.4329
   1424.74548     759.4062     608.0138   1424.74548     759.4062     608.0138
   1424.73022     759.6240     606.7556   1424.73022     759.6240     606.7556
   1424.71497     760.7125     608.9072   1424.71497     760.7125     608.9072
   1424.69971     760.1753     608.7612   1424.69971     760.1753     608.7612
   1424.68445     761.9136     608.6091   1424.68445     761.9136     608.6091
   1424.66919     760.3830     610.4628   1424.66919     760.3830     610.4628
   1424.65393     761.9250     610.5608   1424.65393     761.9250     610.5608
   1424.63867     761.0232     611.4483   1424.63867     761.0232     611.4483
   1424.62341     761.4297     612.3749   1424.62341     761.4297     612.3749
   1424.60815     760.8845     613.8507   1424.60815     760.8845     613.8507
   1424.59290     760.9040     613.8519   1424.59290     760.9040     613.8519
   1424.57764     760.3690     613.5203   1424.57764     760.3690     613.5203
   1424.56238     762.3701     614.5532   1424.56238     762.3701     614.5532
   1424.54712     762.1066     614.3316   1424.54712     762.1066     614.3316
   1424.53186     760.2610     615.9642   1424.53186     760.2610     615.9642
   1424.51660     760.6345     615.8195   1424.51660     760.6345     615.8195
   1424.50134     760.9143     616.4210   1424.50134     760.9143     616.4210
   1424.48608     760.8735     617.3928   1424.48608     760.8735     617.3928
   1424.47083     760.6373     617.5413   1424.47083     760.6373     617.5413
   1424.45557     760.1379     617.7722   1424.45557     760.1379     617.7722
   1424.44031     760.0845     619.1926   1424.44031     760.0845     619.1926
   1424.42505     760.0439     620.2227   1424.42505     760.0439     620.2227
   1424.40979     760.0859     619.0552   1424.40979     760.0859     619.0552
   1424.39453     759.5403     619.9843   1424.39453     759.5403     619.9843
   1424.37927     759.7729     620.7675   1424.37927     759.7729     620.7675
   1424.36401     760.1511     621.1374   1424.36401     760.1511     621.1374
   1424.34875     759.3635     621.7266   1424.34875     759.3635     621.7266
   1424.33350     759.8233     621.3031   1424.33350     759.8233     621.3031
   1424.31824     758.9122     622.4982   1424.31824     758.9122     622.4982
   1424.30298     758.0520     623.1655   1424.30298     758.0520     623.1655
   1424.28772     760.2411     622.8077   1424.28772     760.2411     622.8077
   1424.27246     756.6698     623.3618   1424.27246     756.6698     623.3618
   1424.25720     758.9045     624.3693   1424.25720     758.9045     624.3693
   1424.24194     757.9459     624.1877   1424.24194     757.9459     624.1877
   1424.22668     758.5125     625.4078   1424.22668     758.5125     625.4078
   1424.21143     758.1569     625.9879   1424.21143     758.1569     625.9879
   1424.19617     757.8926     625.6066   1424.19617     757.8926     625.6066
   1424.18091     756.7134     626.6539   1424.18091     756.7134     626.6539
   1424.16565     757.0965     626.2417   1424.16565     757.0965     626.2417
