#     FILENAME=!Skynet_57528_lach-cc-227_20643_21031.cyb.fits
#     BASENAME=Skynet_57528_lach-cc-227_20643_21031
#     SRC_NAME=lach-cc-227
#     OBSERVER=ccmadison16_9505
#     DATE_OBS=2016-05-20T19:38:20.620
#        OBSID=20643
#      SCANNUM=21031
#          MJD=57528.8193
#          UTC=70789
#     SCANTYPE=track
#     DATAMODE=HIRES
#     TUNEFREQ=1420.0000
# Actual_FREQ1=1420.0000
# Actual_FREQ2=1420.0000
#    LO1Tuning=6870.000
#     RFFILTER=1355_1435
#        OBSBW=-15.6250
#        NCHAN=1024 
#        FOCUS=37.0709
#           RA=07:17:29.39
#          DEC=-12:29:37.40
#      RA(hrs)=7.291500
#     DEC(deg)=-12.493700
#    AZIM(deg)=159.911
#    ELEV(deg)=36.748
#     IFattens=10.00, 9.00
#      WARNING=None
#    TCAL_XL1=7.9635
#    TCAL_YR1=9.1340
#    TCAL_XL2=7.9635
#    TCAL_YR2=9.1340
#     TRX_XL1=11.7060
#     TRX_YR1=11.7060
#     TRX_XL2=11.7060
#     TRX_YR2=11.7060
#        TAVE=1.0000
#Freq1(MHz)          XL1          YR1  Freq2(MHz)          XL2          YR2 

   1427.81250     355.1665     276.7014   1427.81250     355.1665     276.7014
   1427.79724     356.6613     275.8626   1427.79724     356.6613     275.8626
   1427.78198     357.0825     277.3120   1427.78198     357.0825     277.3120
   1427.76672     358.2567     277.7881   1427.76672     358.2567     277.7881
   1427.75146     359.0022     278.1783   1427.75146     359.0022     278.1783
   1427.73621     359.6592     279.0136   1427.73621     359.6592     279.0136
   1427.72095     360.6509     279.5591   1427.72095     360.6509     279.5591
   1427.70569     361.7511     280.1316   1427.70569     361.7511     280.1316
   1427.69043     362.1355     280.9250   1427.69043     362.1355     280.9250
   1427.67517     363.6784     281.7415   1427.67517     363.6784     281.7415
   1427.65991     365.3129     282.5995   1427.65991     365.3129     282.5995
   1427.64465     365.6371     283.4281   1427.64465     365.6371     283.4281
   1427.62939     367.6111     283.9032   1427.62939     367.6111     283.9032
   1427.61414     368.6135     285.3879   1427.61414     368.6135     285.3879
   1427.59888     370.1454     286.4236   1427.59888     370.1454     286.4236
   1427.58362     370.4611     287.0024   1427.58362     370.4611     287.0024
   1427.56836     372.2162     287.8493   1427.56836     372.2162     287.8493
   1427.55310     374.0079     288.6356   1427.55310     374.0079     288.6356
   1427.53784     375.9674     290.1847   1427.53784     375.9674     290.1847
   1427.52258     376.9904     291.5180   1427.52258     376.9904     291.5180
   1427.50732     379.0561     292.6049   1427.50732     379.0561     292.6049
   1427.49207     380.8587     293.5288   1427.49207     380.8587     293.5288
   1427.47681     382.7738     294.8743   1427.47681     382.7738     294.8743
   1427.46155     383.7384     296.4851   1427.46155     383.7384     296.4851
   1427.44629     385.7132     297.5001   1427.44629     385.7132     297.5001
   1427.43103     387.8801     298.7126   1427.43103     387.8801     298.7126
   1427.41577     389.3797     300.0347   1427.41577     389.3797     300.0347
   1427.40051     391.8351     301.1232   1427.40051     391.8351     301.1232
   1427.38525     393.1409     303.5689   1427.38525     393.1409     303.5689
   1427.37000     395.2114     304.9563   1427.37000     395.2114     304.9563
   1427.35474     397.6193     305.6397   1427.35474     397.6193     305.6397
   1427.33948     399.6540     307.5225   1427.33948     399.6540     307.5225
   1427.32422     401.2408     309.2984   1427.32422     401.2408     309.2984
   1427.30896     403.5747     310.8277   1427.30896     403.5747     310.8277
   1427.29370     405.2072     311.9420   1427.29370     405.2072     311.9420
   1427.27844     407.8172     313.7851   1427.27844     407.8172     313.7851
   1427.26318     410.3257     315.4436   1427.26318     410.3257     315.4436
   1427.24792     412.1896     317.1280   1427.24792     412.1896     317.1280
   1427.23267     414.8328     319.1517   1427.23267     414.8328     319.1517
   1427.21741     417.4042     321.4659   1427.21741     417.4042     321.4659
   1427.20215     419.1339     323.0389   1427.20215     419.1339     323.0389
   1427.18689     422.0089     324.4722   1427.18689     422.0089     324.4722
   1427.17163     424.0322     326.5780   1427.17163     424.0322     326.5780
   1427.15637     426.7148     328.3540   1427.15637     426.7148     328.3540
   1427.14111     429.2525     329.6581   1427.14111     429.2525     329.6581
   1427.12585     431.9076     331.9322   1427.12585     431.9076     331.9322
   1427.11060     434.7707     334.2964   1427.11060     434.7707     334.2964
   1427.09534     436.8011     336.5435   1427.09534     436.8011     336.5435
   1427.08008     438.8604     337.1284   1427.08008     438.8604     337.1284
   1427.06482     441.9227     340.4419   1427.06482     441.9227     340.4419
   1427.04956     444.5365     342.0014   1427.04956     444.5365     342.0014
   1427.03430     447.0752     344.7917   1427.03430     447.0752     344.7917
   1427.01904     449.4537     346.1769   1427.01904     449.4537     346.1769
   1427.00378     452.6660     348.2116   1427.00378     452.6660     348.2116
   1426.98853     454.7205     350.0399   1426.98853     454.7205     350.0399
   1426.97327     457.2183     352.3338   1426.97327     457.2183     352.3338
   1426.95801     460.7105     354.3730   1426.95801     460.7105     354.3730
   1426.94275     462.8257     356.9756   1426.94275     462.8257     356.9756
   1426.92749     465.9673     359.2708   1426.92749     465.9673     359.2708
   1426.91223     468.9311     361.6556   1426.91223     468.9311     361.6556
   1426.89697     471.3766     363.3505   1426.89697     471.3766     363.3505
   1426.88171     474.4255     364.9442   1426.88171     474.4255     364.9442
   1426.86646     476.6131     368.4184   1426.86646     476.6131     368.4184
   1426.85120     479.8846     370.0863   1426.85120     479.8846     370.0863
   1426.83594     481.8866     372.6249   1426.83594     481.8866     372.6249
   1426.82068     485.4579     374.5268   1426.82068     485.4579     374.5268
   1426.80542     488.1223     377.2578   1426.80542     488.1223     377.2578
   1426.79016     491.4761     378.8947   1426.79016     491.4761     378.8947
   1426.77490     493.6874     381.6777   1426.77490     493.6874     381.6777
   1426.75964     496.3629     384.0012   1426.75964     496.3629     384.0012
   1426.74438     499.4741     386.7466   1426.74438     499.4741     386.7466
   1426.72913     501.8024     388.9203   1426.72913     501.8024     388.9203
   1426.71387     505.6552     391.1282   1426.71387     505.6552     391.1282
   1426.69861     507.7380     393.0481   1426.69861     507.7380     393.0481
   1426.68335     510.7824     395.3763   1426.68335     510.7824     395.3763
   1426.66809     514.1979     398.3407   1426.66809     514.1979     398.3407
   1426.65283     517.4103     400.5774   1426.65283     517.4103     400.5774
   1426.63757     519.8831     403.4564   1426.63757     519.8831     403.4564
   1426.62231     525.1984     408.4405   1426.62231     525.1984     408.4405
   1426.60706     525.6315     408.0430   1426.60706     525.6315     408.0430
   1426.59180     527.9380     409.7180   1426.59180     527.9380     409.7180
   1426.57654     530.4911     412.7453   1426.57654     530.4911     412.7453
   1426.56128     533.7984     414.9794   1426.56128     533.7984     414.9794
   1426.54602     537.1907     417.1469   1426.54602     537.1907     417.1469
   1426.53076     539.9319     420.3892   1426.53076     539.9319     420.3892
   1426.51550     542.2943     421.8777   1426.51550     542.2943     421.8777
   1426.50024     545.1471     424.4514   1426.50024     545.1471     424.4514
   1426.48499     547.8317     427.1115   1426.48499     547.8317     427.1115
   1426.46973     550.1484     429.3589   1426.46973     550.1484     429.3589
   1426.45447     553.2391     431.5874   1426.45447     553.2391     431.5874
   1426.43921     556.2952     434.1547   1426.43921     556.2952     434.1547
   1426.42395     558.3155     436.7729   1426.42395     558.3155     436.7729
   1426.40869     561.4542     438.9802   1426.40869     561.4542     438.9802
   1426.39343     564.0199     441.4924   1426.39343     564.0199     441.4924
   1426.37817     567.9166     443.9937   1426.37817     567.9166     443.9937
   1426.36292     569.9492     446.0599   1426.36292     569.9492     446.0599
   1426.34766     571.8528     449.0210   1426.34766     571.8528     449.0210
   1426.33240     574.9502     450.5896   1426.33240     574.9502     450.5896
   1426.31714     577.7932     453.8991   1426.31714     577.7932     453.8991
   1426.30188     579.9610     456.6425   1426.30188     579.9610     456.6425
   1426.28662     583.0847     458.3439   1426.28662     583.0847     458.3439
   1426.27136     585.3378     461.2639   1426.27136     585.3378     461.2639
   1426.25610     588.2887     463.4912   1426.25610     588.2887     463.4912
   1426.24084     591.0398     466.2608   1426.24084     591.0398     466.2608
   1426.22559     592.9420     468.4892   1426.22559     592.9420     468.4892
   1426.21033     595.8781     470.5139   1426.21033     595.8781     470.5139
   1426.19507     598.4765     473.1135   1426.19507     598.4765     473.1135
   1426.17981     600.1057     475.0298   1426.17981     600.1057     475.0298
   1426.16455     603.5209     477.5250   1426.16455     603.5209     477.5250
   1426.14929     606.1890     480.0179   1426.14929     606.1890     480.0179
   1426.13403     607.7100     482.0760   1426.13403     607.7100     482.0760
   1426.11877     610.2778     484.1892   1426.11877     610.2778     484.1892
   1426.10352     612.0403     487.4129   1426.10352     612.0403     487.4129
   1426.08826     614.2535     489.5005   1426.08826     614.2535     489.5005
   1426.07300     617.2244     491.0877   1426.07300     617.2244     491.0877
   1426.05774     619.4838     493.6936   1426.05774     619.4838     493.6936
   1426.04248     621.8347     495.9036   1426.04248     621.8347     495.9036
   1426.02722     623.5585     498.9289   1426.02722     623.5585     498.9289
   1426.01196     625.7340     500.7333   1426.01196     625.7340     500.7333
   1425.99670     628.8534     502.2497   1425.99670     628.8534     502.2497
   1425.98145     630.6708     505.6512   1425.98145     630.6708     505.6512
   1425.96619     633.1990     507.1779   1425.96619     633.1990     507.1779
   1425.95093     635.5784     509.3362   1425.95093     635.5784     509.3362
   1425.93567     636.9667     511.3245   1425.93567     636.9667     511.3245
   1425.92041     638.7486     513.8294   1425.92041     638.7486     513.8294
   1425.90515     641.5759     516.6811   1425.90515     641.5759     516.6811
   1425.88989     643.0256     518.5195   1425.88989     643.0256     518.5195
   1425.87463     644.8893     520.5800   1425.87463     644.8893     520.5800
   1425.85938     647.3947     522.9910   1425.85938     647.3947     522.9910
   1425.84412     648.8698     524.9258   1425.84412     648.8698     524.9258
   1425.82886     650.5486     527.4354   1425.82886     650.5486     527.4354
   1425.81360     651.9081     529.3881   1425.81360     651.9081     529.3881
   1425.79834     654.3007     531.0185   1425.79834     654.3007     531.0185
   1425.78308     655.9263     533.8161   1425.78308     655.9263     533.8161
   1425.76782     658.6243     536.0218   1425.76782     658.6243     536.0218
   1425.75256     658.7806     537.4074   1425.75256     658.7806     537.4074
   1425.73730     661.0081     539.4048   1425.73730     661.0081     539.4048
   1425.72205     662.5999     541.4913   1425.72205     662.5999     541.4913
   1425.70679     663.1267     544.3991   1425.70679     663.1267     544.3991
   1425.69153     665.3817     544.7692   1425.69153     665.3817     544.7692
   1425.67627     667.5440     548.1352   1425.67627     667.5440     548.1352
   1425.66101     668.9754     550.3546   1425.66101     668.9754     550.3546
   1425.64575     671.9464     551.8108   1425.64575     671.9464     551.8108
   1425.63049     672.4413     554.0960   1425.63049     672.4413     554.0960
   1425.61523     674.2130     555.6204   1425.61523     674.2130     555.6204
   1425.59998     675.4679     557.1647   1425.59998     675.4679     557.1647
   1425.58472     676.5543     559.4441   1425.58472     676.5543     559.4441
   1425.56946     676.9961     561.8472   1425.56946     676.9961     561.8472
   1425.55420     678.6005     564.3821   1425.55420     678.6005     564.3821
   1425.53894     681.6122     564.6443   1425.53894     681.6122     564.6443
   1425.52368     681.8548     566.8189   1425.52368     681.8548     566.8189
   1425.50842     682.9380     569.5270   1425.50842     682.9380     569.5270
   1425.49316     685.1736     571.7092   1425.49316     685.1736     571.7092
   1425.47791     686.6655     573.4629   1425.47791     686.6655     573.4629
   1425.46265     687.1292     574.3499   1425.46265     687.1292     574.3499
   1425.44739     687.9487     577.5446   1425.44739     687.9487     577.5446
   1425.43213     689.4583     578.4374   1425.43213     689.4583     578.4374
   1425.41687     692.4257     581.2590   1425.41687     692.4257     581.2590
   1425.40161     691.0563     582.6573   1425.40161     691.0563     582.6573
   1425.38635     692.8302     584.0726   1425.38635     692.8302     584.0726
   1425.37109     693.6713     585.2012   1425.37109     693.6713     585.2012
   1425.35583     695.4657     587.5639   1425.35583     695.4657     587.5639
   1425.34058     695.9644     589.1837   1425.34058     695.9644     589.1837
   1425.32532     697.2731     591.6494   1425.32532     697.2731     591.6494
   1425.31006     698.0402     592.3689   1425.31006     698.0402     592.3689
   1425.29480     699.2455     594.2299   1425.29480     699.2455     594.2299
   1425.27954     699.0634     596.6533   1425.27954     699.0634     596.6533
   1425.26428     701.0580     598.1441   1425.26428     701.0580     598.1441
   1425.24902     702.2308     600.7235   1425.24902     702.2308     600.7235
   1425.23376     702.5071     601.1119   1425.23376     702.5071     601.1119
   1425.21851     701.8723     601.9693   1425.21851     701.8723     601.9693
   1425.20325     703.7057     603.9131   1425.20325     703.7057     603.9131
   1425.18799     704.5458     605.1900   1425.18799     704.5458     605.1900
   1425.17273     705.2467     607.1977   1425.17273     705.2467     607.1977
   1425.15747     705.7583     609.2603   1425.15747     705.7583     609.2603
   1425.14221     706.8933     610.2559   1425.14221     706.8933     610.2559
   1425.12695     707.0701     611.8259   1425.12695     707.0701     611.8259
   1425.11169     708.2939     612.5687   1425.11169     708.2939     612.5687
   1425.09644     708.3927     615.1071   1425.09644     708.3927     615.1071
   1425.08118     709.7881     616.8198   1425.08118     709.7881     616.8198
   1425.06592     708.9908     618.4218   1425.06592     708.9908     618.4218
   1425.05066     710.0724     620.3123   1425.05066     710.0724     620.3123
   1425.03540     710.6446     620.7612   1425.03540     710.6446     620.7612
   1425.02014     711.4590     621.6138   1425.02014     711.4590     621.6138
   1425.00488     711.6226     623.9532   1425.00488     711.6226     623.9532
   1424.98962     711.2689     625.5690   1424.98962     711.2689     625.5690
   1424.97437     712.3705     627.3058   1424.97437     712.3705     627.3058
   1424.95911     713.3347     628.2858   1424.95911     713.3347     628.2858
   1424.94385     713.9269     629.4474   1424.94385     713.9269     629.4474
   1424.92859     713.5349     629.4409   1424.92859     713.5349     629.4409
   1424.91333     714.0527     632.7607   1424.91333     714.0527     632.7607
   1424.89807     715.6581     632.8146   1424.89807     715.6581     632.8146
   1424.88281     716.4230     633.5638   1424.88281     716.4230     633.5638
   1424.86755     715.2475     635.1840   1424.86755     715.2475     635.1840
   1424.85229     715.8358     636.6647   1424.85229     715.8358     636.6647
   1424.83704     715.8030     637.2311   1424.83704     715.8030     637.2311
   1424.82178     716.6816     639.2416   1424.82178     716.6816     639.2416
   1424.80652     716.3904     640.1671   1424.80652     716.3904     640.1671
   1424.79126     716.4311     640.7777   1424.79126     716.4311     640.7777
   1424.77600     718.3779     642.4152   1424.77600     718.3779     642.4152
   1424.76074     718.2188     643.4384   1424.76074     718.2188     643.4384
   1424.74548     716.6808     643.0110   1424.74548     716.6808     643.0110
   1424.73022     717.9528     646.1108   1424.73022     717.9528     646.1108
   1424.71497     717.9064     646.0671   1424.71497     717.9064     646.0671
   1424.69971     718.5097     647.0610   1424.69971     718.5097     647.0610
   1424.68445     718.7090     647.8958   1424.68445     718.7090     647.8958
   1424.66919     718.2807     649.1479   1424.66919     718.2807     649.1479
   1424.65393     719.3788     649.6405   1424.65393     719.3788     649.6405
   1424.63867     717.9679     651.3813   1424.63867     717.9679     651.3813
   1424.62341     718.9384     652.5105   1424.62341     718.9384     652.5105
   1424.60815     718.8488     653.5896   1424.60815     718.8488     653.5896
   1424.59290     718.8447     653.4707   1424.59290     718.8447     653.4707
   1424.57764     718.8447     654.7441   1424.57764     718.8447     654.7441
   1424.56238     718.2869     656.3729   1424.56238     718.2869     656.3729
   1424.54712     718.5818     656.4437   1424.54712     718.5818     656.4437
   1424.53186     718.5175     657.3467   1424.53186     718.5175     657.3467
   1424.51660     719.2354     657.8572   1424.51660     719.2354     657.8572
   1424.50134     719.8729     658.4664   1424.50134     719.8729     658.4664
   1424.48608     719.5716     659.6354   1424.48608     719.5716     659.6354
   1424.47083     719.4581     660.0410   1424.47083     719.4581     660.0410
   1424.45557     718.6998     661.4554   1424.45557     718.6998     661.4554
   1424.44031     718.6251     661.4199   1424.44031     718.6251     661.4199
   1424.42505     718.8604     662.6025   1424.42505     718.8604     662.6025
   1424.40979     719.0955     662.3552   1424.40979     719.0955     662.3552
   1424.39453     718.1443     662.8423   1424.39453     718.1443     662.8423
   1424.37927     718.9077     662.6307   1424.37927     718.9077     662.6307
   1424.36401     718.1512     664.1948   1424.36401     718.1512     664.1948
   1424.34875     719.0574     664.8555   1424.34875     719.0574     664.8555
   1424.33350     718.4973     665.8663   1424.33350     718.4973     665.8663
   1424.31824     719.7260     665.2406   1424.31824     719.7260     665.2406
   1424.30298     718.4463     666.7656   1424.30298     718.4463     666.7656
   1424.28772     718.9431     667.3087   1424.28772     718.9431     667.3087
   1424.27246     717.6243     667.9146   1424.27246     717.6243     667.9146
   1424.25720     718.6052     668.0646   1424.25720     718.6052     668.0646
   1424.24194     717.3875     668.6649   1424.24194     717.3875     668.6649
   1424.22668     717.9330     667.5829   1424.22668     717.9330     667.5829
   1424.21143     718.0065     669.5283   1424.21143     718.0065     669.5283
   1424.19617     716.8387     669.6735   1424.19617     716.8387     669.6735
   1424.18091     716.8151     668.5854   1424.18091     716.8151     668.5854
   1424.16565     717.0956     670.8472   1424.16565     717.0956     670.8472
