#     FILENAME=!Skynet_57528_lach-hhg-126_20420_20950.cyb.fits
#     BASENAME=Skynet_57528_lach-hhg-126_20420_20950
#     SRC_NAME=lach-hhg-126
#     OBSERVER=hhgmadison16_9500
#     DATE_OBS=2016-05-20T16:49:33.180
#        OBSID=20420
#      SCANNUM=20950
#          MJD=57528.7021
#          UTC=60662
#     SCANTYPE=track
#     DATAMODE=HIRES
#     TUNEFREQ=1420.0000
# Actual_FREQ1=1420.0000
# Actual_FREQ2=1420.0000
#    LO1Tuning=6870.000
#     RFFILTER=1355_1435
#        OBSBW=-15.6250
#        NCHAN=1024 
#        FOCUS=37.0709
#           RA=01:18:25.00
#          DEC=62:42:43.84
#      RA(hrs)=1.306900
#     DEC(deg)=62.712200
#    AZIM(deg)=331.763
#    ELEV(deg)=59.025
#     IFattens=10.00, 10.00
#      WARNING=None
#    TCAL_XL1=7.9635
#    TCAL_YR1=9.1340
#    TCAL_XL2=7.9635
#    TCAL_YR2=9.1340
#     TRX_XL1=11.7060
#     TRX_YR1=11.7060
#     TRX_XL2=11.7060
#     TRX_YR2=11.7060
#        TAVE=1.0000
#Freq1(MHz)          XL1          YR1  Freq2(MHz)          XL2          YR2 

   1427.81250     295.2289     281.2178   1427.81250     295.2289     281.2178
   1427.79724     295.0651     282.1398   1427.79724     295.0651     282.1398
   1427.78198     295.9051     282.2389   1427.78198     295.9051     282.2389
   1427.76672     296.5181     283.4221   1427.76672     296.5181     283.4221
   1427.75146     296.7097     285.0962   1427.75146     296.7097     285.0962
   1427.73621     297.7982     285.2534   1427.73621     297.7982     285.2534
   1427.72095     298.5879     286.5145   1427.72095     298.5879     286.5145
   1427.70569     299.2930     287.5742   1427.70569     299.2930     287.5742
   1427.69043     299.9322     289.0218   1427.69043     299.9322     289.0218
   1427.67517     301.1725     289.2222   1427.67517     301.1725     289.2222
   1427.65991     301.8889     291.0706   1427.65991     301.8889     291.0706
   1427.64465     302.9908     292.3501   1427.64465     302.9908     292.3501
   1427.62939     303.8056     293.5057   1427.62939     303.8056     293.5057
   1427.61414     305.3420     294.8059   1427.61414     305.3420     294.8059
   1427.59888     305.9695     296.4174   1427.59888     305.9695     296.4174
   1427.58362     307.3516     297.3549   1427.58362     307.3516     297.3549
   1427.56836     308.1578     298.5468   1427.56836     308.1578     298.5468
   1427.55310     309.6929     300.5332   1427.55310     309.6929     300.5332
   1427.53784     311.0701     301.0778   1427.53784     311.0701     301.0778
   1427.52258     312.3273     303.7621   1427.52258     312.3273     303.7621
   1427.50732     313.1141     305.1830   1427.50732     313.1141     305.1830
   1427.49207     314.9811     306.6485   1427.49207     314.9811     306.6485
   1427.47681     315.8554     308.3755   1427.47681     315.8554     308.3755
   1427.46155     317.8309     310.1797   1427.46155     317.8309     310.1797
   1427.44629     318.7517     311.5622   1427.44629     318.7517     311.5622
   1427.43103     320.3062     313.5772   1427.43103     320.3062     313.5772
   1427.41577     321.7303     314.5096   1427.41577     321.7303     314.5096
   1427.40051     323.2838     316.6772   1427.40051     323.2838     316.6772
   1427.38525     325.1884     318.8536   1427.38525     325.1884     318.8536
   1427.37000     326.4753     320.1010   1427.37000     326.4753     320.1010
   1427.35474     328.5341     322.2538   1427.35474     328.5341     322.2538
   1427.33948     330.3292     324.0509   1427.33948     330.3292     324.0509
   1427.32422     331.8568     326.0278   1427.32422     331.8568     326.0278
   1427.30896     334.1908     327.8215   1427.30896     334.1908     327.8215
   1427.29370     335.3075     329.6055   1427.29370     335.3075     329.6055
   1427.27844     337.6046     332.2598   1427.27844     337.6046     332.2598
   1427.26318     339.3407     334.2848   1427.26318     339.3407     334.2848
   1427.24792     341.3464     336.6678   1427.24792     341.3464     336.6678
   1427.23267     343.5405     338.2433   1427.23267     343.5405     338.2433
   1427.21741     345.2122     340.6127   1427.21741     345.2122     340.6127
   1427.20215     346.7509     342.1826   1427.20215     346.7509     342.1826
   1427.18689     349.1711     344.8589   1427.18689     349.1711     344.8589
   1427.17163     351.1556     347.0667   1427.17163     351.1556     347.0667
   1427.15637     353.1757     349.2344   1427.15637     353.1757     349.2344
   1427.14111     355.0859     351.6626   1427.14111     355.0859     351.6626
   1427.12585     357.4973     353.5909   1427.12585     357.4973     353.5909
   1427.11060     360.0812     356.2504   1427.11060     360.0812     356.2504
   1427.09534     361.8539     358.0712   1427.09534     361.8539     358.0712
   1427.08008     364.0641     360.9124   1427.08008     364.0641     360.9124
   1427.06482     366.6268     363.5230   1427.06482     366.6268     363.5230
   1427.04956     368.5529     365.4846   1427.04956     368.5529     365.4846
   1427.03430     370.6108     367.7569   1427.03430     370.6108     367.7569
   1427.01904     372.6878     370.1187   1427.01904     372.6878     370.1187
   1427.00378     375.5933     373.1147   1427.00378     375.5933     373.1147
   1426.98853     378.1483     375.3491   1426.98853     378.1483     375.3491
   1426.97327     379.6389     377.5153   1426.97327     379.6389     377.5153
   1426.95801     382.5677     379.4385   1426.95801     382.5677     379.4385
   1426.94275     384.2935     382.0235   1426.94275     384.2935     382.0235
   1426.92749     387.7056     384.3827   1426.92749     387.7056     384.3827
   1426.91223     389.2982     387.0815   1426.91223     389.2982     387.0815
   1426.89697     392.1193     390.2699   1426.89697     392.1193     390.2699
   1426.88171     394.1286     392.7348   1426.88171     394.1286     392.7348
   1426.86646     395.9906     395.1028   1426.86646     395.9906     395.1028
   1426.85120     398.9832     397.0580   1426.85120     398.9832     397.0580
   1426.83594     400.6201     399.7582   1426.83594     400.6201     399.7582
   1426.82068     403.9700     402.8019   1426.82068     403.9700     402.8019
   1426.80542     406.5985     405.1521   1426.80542     406.5985     405.1521
   1426.79016     408.1418     407.6368   1426.79016     408.1418     407.6368
   1426.77490     410.8612     409.8995   1426.77490     410.8612     409.8995
   1426.75964     413.9889     412.5060   1426.75964     413.9889     412.5060
   1426.74438     416.0608     415.1958   1426.74438     416.0608     415.1958
   1426.72913     419.1480     418.2944   1426.72913     419.1480     418.2944
   1426.71387     421.4434     420.3672   1426.71387     421.4434     420.3672
   1426.69861     423.4231     423.7049   1426.69861     423.4231     423.7049
   1426.68335     425.8011     425.2245   1426.68335     425.8011     425.2245
   1426.66809     428.9675     428.4078   1426.66809     428.9675     428.4078
   1426.65283     431.2038     430.6661   1426.65283     431.2038     430.6661
   1426.63757     434.3869     432.7476   1426.63757     434.3869     432.7476
   1426.62231     438.6859     438.5255   1426.62231     438.6859     438.5255
   1426.60706     439.4615     438.7071   1426.60706     439.4615     438.7071
   1426.59180     440.8250     440.8455   1426.59180     440.8250     440.8455
   1426.57654     444.7401     443.5990   1426.57654     444.7401     443.5990
   1426.56128     447.4987     445.5042   1426.56128     447.4987     445.5042
   1426.54602     448.5885     448.4492   1426.54602     448.5885     448.4492
   1426.53076     451.6410     451.3172   1426.53076     451.6410     451.3172
   1426.51550     453.8829     454.3036   1426.51550     453.8829     454.3036
   1426.50024     455.9149     456.1618   1426.50024     455.9149     456.1618
   1426.48499     458.0729     458.0692   1426.48499     458.0729     458.0692
   1426.46973     462.2722     460.9645   1426.46973     462.2722     460.9645
   1426.45447     463.8391     463.1831   1426.45447     463.8391     463.1831
   1426.43921     465.9245     466.4973   1426.43921     465.9245     466.4973
   1426.42395     468.6360     468.6525   1426.42395     468.6360     468.6525
   1426.40869     471.0635     471.0660   1426.40869     471.0635     471.0660
   1426.39343     474.0145     473.1221   1426.39343     474.0145     473.1221
   1426.37817     475.8784     476.2387   1426.37817     475.8784     476.2387
   1426.36292     477.9926     478.6046   1426.36292     477.9926     478.6046
   1426.34766     480.5551     480.2306   1426.34766     480.5551     480.2306
   1426.33240     483.1782     483.1196   1426.33240     483.1782     483.1196
   1426.31714     484.7564     484.6262   1426.31714     484.7564     484.6262
   1426.30188     487.7425     487.7881   1426.30188     487.7425     487.7881
   1426.28662     489.1175     490.1261   1426.28662     489.1175     490.1261
   1426.27136     492.0952     492.7860   1426.27136     492.0952     492.7860
   1426.25610     494.3081     494.2512   1426.25610     494.3081     494.2512
   1426.24084     495.9162     496.4799   1426.24084     495.9162     496.4799
   1426.22559     498.5756     500.2826   1426.22559     498.5756     500.2826
   1426.21033     500.9577     501.1414   1426.21033     500.9577     501.1414
   1426.19507     503.6703     503.6066   1426.19507     503.6703     503.6066
   1426.17981     504.8497     505.5566   1426.17981     504.8497     505.5566
   1426.16455     508.1293     508.0804   1426.16455     508.1293     508.0804
   1426.14929     509.5240     509.3413   1426.14929     509.5240     509.3413
   1426.13403     511.8855     512.4133   1426.13403     511.8855     512.4133
   1426.11877     514.1577     514.8295   1426.11877     514.1577     514.8295
   1426.10352     516.9390     517.3978   1426.10352     516.9390     517.3978
   1426.08826     518.1772     520.1102   1426.08826     518.1772     520.1102
   1426.07300     519.6198     521.2662   1426.07300     519.6198     521.2662
   1426.05774     522.0184     524.2963   1426.05774     522.0184     524.2963
   1426.04248     523.8972     525.6376   1426.04248     523.8972     525.6376
   1426.02722     526.6762     527.7642   1426.02722     526.6762     527.7642
   1426.01196     528.8667     529.1870   1426.01196     528.8667     529.1870
   1425.99670     530.3705     531.5919   1425.99670     530.3705     531.5919
   1425.98145     531.5845     533.5741   1425.98145     531.5845     533.5741
   1425.96619     533.9916     535.9662   1425.96619     533.9916     535.9662
   1425.95093     536.6062     537.0946   1425.95093     536.6062     537.0946
   1425.93567     538.2280     539.9310   1425.93567     538.2280     539.9310
   1425.92041     539.7750     541.8759   1425.92041     539.7750     541.8759
   1425.90515     541.2728     543.0435   1425.90515     541.2728     543.0435
   1425.88989     542.7660     544.3114   1425.88989     542.7660     544.3114
   1425.87463     544.8082     547.4891   1425.87463     544.8082     547.4891
   1425.85938     546.7725     548.9116   1425.85938     546.7725     548.9116
   1425.84412     547.3378     551.0638   1425.84412     547.3378     551.0638
   1425.82886     550.7020     553.2465   1425.82886     550.7020     553.2465
   1425.81360     551.5220     554.4371   1425.81360     551.5220     554.4371
   1425.79834     553.7310     556.9361   1425.79834     553.7310     556.9361
   1425.78308     554.5450     558.2048   1425.78308     554.5450     558.2048
   1425.76782     555.8137     559.9215   1425.76782     555.8137     559.9215
   1425.75256     557.8068     561.8521   1425.75256     557.8068     561.8521
   1425.73730     559.0728     563.3912   1425.73730     559.0728     563.3912
   1425.72205     561.1331     564.7992   1425.72205     561.1331     564.7992
   1425.70679     563.0436     566.2654   1425.70679     563.0436     566.2654
   1425.69153     563.9364     567.8247   1425.69153     563.9364     567.8247
   1425.67627     565.3814     569.9752   1425.67627     565.3814     569.9752
   1425.66101     566.4910     571.0781   1425.66101     566.4910     571.0781
   1425.64575     567.9518     573.3094   1425.64575     567.9518     573.3094
   1425.63049     569.0524     574.7724   1425.63049     569.0524     574.7724
   1425.61523     570.4673     575.8988   1425.61523     570.4673     575.8988
   1425.59998     571.4963     577.5686   1425.59998     571.4963     577.5686
   1425.58472     573.9338     579.6409   1425.58472     573.9338     579.6409
   1425.56946     574.0632     580.7161   1425.56946     574.0632     580.7161
   1425.55420     575.3361     582.0873   1425.55420     575.3361     582.0873
   1425.53894     576.7488     583.4186   1425.53894     576.7488     583.4186
   1425.52368     577.3063     584.6771   1425.52368     577.3063     584.6771
   1425.50842     580.4343     586.0115   1425.50842     580.4343     586.0115
   1425.49316     580.7733     587.5195   1425.49316     580.7733     587.5195
   1425.47791     581.2514     589.3152   1425.47791     581.2514     589.3152
   1425.46265     581.6111     590.3652   1425.46265     581.6111     590.3652
   1425.44739     583.9020     591.0127   1425.44739     583.9020     591.0127
   1425.43213     584.2268     593.1682   1425.43213     584.2268     593.1682
   1425.41687     585.1293     595.5049   1425.41687     585.1293     595.5049
   1425.40161     586.4804     595.0396   1425.40161     586.4804     595.0396
   1425.38635     587.2017     597.4890   1425.38635     587.2017     597.4890
   1425.37109     587.7594     597.8714   1425.37109     587.7594     597.8714
   1425.35583     589.1472     598.9495   1425.35583     589.1472     598.9495
   1425.34058     589.9952     600.5092   1425.34058     589.9952     600.5092
   1425.32532     589.6791     600.8365   1425.32532     589.6791     600.8365
   1425.31006     591.7103     602.3158   1425.31006     591.7103     602.3158
   1425.29480     591.9552     604.6400   1425.29480     591.9552     604.6400
   1425.27954     592.6041     604.9777   1425.27954     592.6041     604.9777
   1425.26428     593.3676     606.2855   1425.26428     593.3676     606.2855
   1425.24902     594.9711     606.7172   1425.24902     594.9711     606.7172
   1425.23376     594.9319     608.5265   1425.23376     594.9319     608.5265
   1425.21851     596.0278     609.3974   1425.21851     596.0278     609.3974
   1425.20325     595.9738     610.2127   1425.20325     595.9738     610.2127
   1425.18799     596.8238     610.7177   1425.18799     596.8238     610.7177
   1425.17273     598.1691     612.6017   1425.17273     598.1691     612.6017
   1425.15747     598.0640     612.0749   1425.15747     598.0640     612.0749
   1425.14221     598.9062     613.2352   1425.14221     598.9062     613.2352
   1425.12695     598.8382     614.5591   1425.12695     598.8382     614.5591
   1425.11169     600.2159     615.3698   1425.11169     600.2159     615.3698
   1425.09644     600.1793     616.5626   1425.09644     600.1793     616.5626
   1425.08118     600.4173     617.3718   1425.08118     600.4173     617.3718
   1425.06592     600.2781     618.1975   1425.06592     600.2781     618.1975
   1425.05066     602.3345     619.0797   1425.05066     602.3345     619.0797
   1425.03540     602.8158     620.2373   1425.03540     602.8158     620.2373
   1425.02014     602.0781     620.7089   1425.02014     602.0781     620.7089
   1425.00488     603.0497     621.2501   1425.00488     603.0497     621.2501
   1424.98962     604.2101     622.0755   1424.98962     604.2101     622.0755
   1424.97437     603.9341     622.0403   1424.97437     603.9341     622.0403
   1424.95911     604.3204     622.1213   1424.95911     604.3204     622.1213
   1424.94385     603.5616     623.8732   1424.94385     603.5616     623.8732
   1424.92859     604.6130     623.5577   1424.92859     604.6130     623.5577
   1424.91333     605.3315     624.9811   1424.91333     605.3315     624.9811
   1424.89807     604.1416     626.2198   1424.89807     604.1416     626.2198
   1424.88281     604.3198     626.2222   1424.88281     604.3198     626.2222
   1424.86755     604.7543     626.6547   1424.86755     604.7543     626.6547
   1424.85229     605.3798     627.9008   1424.85229     605.3798     627.9008
   1424.83704     605.0486     628.9179   1424.83704     605.0486     628.9179
   1424.82178     606.3096     628.9910   1424.82178     606.3096     628.9910
   1424.80652     604.9949     629.7188   1424.80652     604.9949     629.7188
   1424.79126     605.4716     629.4781   1424.79126     605.4716     629.4781
   1424.77600     605.7944     629.8956   1424.77600     605.7944     629.8956
   1424.76074     606.1338     631.1174   1424.76074     606.1338     631.1174
   1424.74548     606.1288     631.4655   1424.74548     606.1288     631.4655
   1424.73022     606.4366     631.5281   1424.73022     606.4366     631.5281
   1424.71497     606.6311     632.4945   1424.71497     606.6311     632.4945
   1424.69971     606.6252     632.8826   1424.69971     606.6252     632.8826
   1424.68445     606.6176     632.7285   1424.68445     606.6176     632.7285
   1424.66919     606.0449     633.6990   1424.66919     606.0449     633.6990
   1424.65393     605.6652     633.8416   1424.65393     605.6652     633.8416
   1424.63867     607.1140     634.2842   1424.63867     607.1140     634.2842
   1424.62341     606.0432     633.9984   1424.62341     606.0432     633.9984
   1424.60815     606.6437     634.7128   1424.60815     606.6437     634.7128
   1424.59290     607.1713     635.8498   1424.59290     607.1713     635.8498
   1424.57764     605.5815     635.1088   1424.57764     605.5815     635.1088
   1424.56238     606.0244     635.3345   1424.56238     606.0244     635.3345
   1424.54712     606.4001     636.6353   1424.54712     606.4001     636.6353
   1424.53186     606.1927     637.4706   1424.53186     606.1927     637.4706
   1424.51660     605.1176     637.4389   1424.51660     605.1176     637.4389
   1424.50134     605.0605     636.8030   1424.50134     605.0605     636.8030
   1424.48608     604.7401     637.1998   1424.48608     604.7401     637.1998
   1424.47083     605.6221     638.0455   1424.47083     605.6221     638.0455
   1424.45557     606.5826     636.9691   1424.45557     606.5826     636.9691
   1424.44031     604.6036     638.8484   1424.44031     604.6036     638.8484
   1424.42505     604.9529     637.2564   1424.42505     604.9529     637.2564
   1424.40979     604.7617     638.0187   1424.40979     604.7617     638.0187
   1424.39453     604.7291     638.1616   1424.39453     604.7291     638.1616
   1424.37927     603.8669     637.6769   1424.37927     603.8669     637.6769
   1424.36401     604.9926     637.9305   1424.36401     604.9926     637.9305
   1424.34875     604.3776     638.9485   1424.34875     604.3776     638.9485
   1424.33350     603.5179     639.6199   1424.33350     603.5179     639.6199
   1424.31824     603.5561     638.6935   1424.31824     603.5561     638.6935
   1424.30298     602.9412     638.6813   1424.30298     602.9412     638.6813
   1424.28772     602.1658     639.2858   1424.28772     602.1658     639.2858
   1424.27246     602.8530     638.4764   1424.27246     602.8530     638.4764
   1424.25720     603.5397     638.9649   1424.25720     603.5397     638.9649
   1424.24194     603.1899     638.4297   1424.24194     603.1899     638.4297
   1424.22668     602.4223     638.2673   1424.22668     602.4223     638.2673
   1424.21143     601.4522     638.9894   1424.21143     601.4522     638.9894
   1424.19617     602.0736     639.3167   1424.19617     602.0736     639.3167
   1424.18091     601.1998     637.7919   1424.18091     601.1998     637.7919
   1424.16565     602.0690     637.9804   1424.16565     602.0690     637.9804
