#     FILENAME=!Skynet_57528_lach-cc-89_20539_20935.cyb.fits
#     BASENAME=Skynet_57528_lach-cc-89_20539_20935
#     SRC_NAME=lach-cc-89
#     OBSERVER=ccmadison16_9505
#     DATE_OBS=2016-05-20T16:19:32.430
#        OBSID=20539
#      SCANNUM=20935
#          MJD=57528.6813
#          UTC=58861
#     SCANTYPE=track
#     DATAMODE=HIRES
#     TUNEFREQ=1420.0000
# Actual_FREQ1=1420.0000
# Actual_FREQ2=1420.0000
#    LO1Tuning=6870.000
#     RFFILTER=1355_1435
#        OBSBW=-15.6250
#        NCHAN=1024 
#        FOCUS=37.0709
#           RA=21:07:53.49
#          DEC=47:35:51.05
#      RA(hrs)=21.131500
#     DEC(deg)=47.597500
#    AZIM(deg)=309.001
#    ELEV(deg)=29.210
#     IFattens=11.00, 10.00
#      WARNING=None
#    TCAL_XL1=7.9635
#    TCAL_YR1=9.1340
#    TCAL_XL2=7.9635
#    TCAL_YR2=9.1340
#     TRX_XL1=11.7060
#     TRX_YR1=11.7060
#     TRX_XL2=11.7060
#     TRX_YR2=11.7060
#        TAVE=1.0000
#Freq1(MHz)          XL1          YR1  Freq2(MHz)          XL2          YR2 

   1427.81250     296.2334     243.5347   1427.81250     296.2334     243.5347
   1427.79724     297.1323     244.0819   1427.79724     297.1323     244.0819
   1427.78198     297.9697     244.4584   1427.78198     297.9697     244.4584
   1427.76672     298.1331     245.2550   1427.76672     298.1331     245.2550
   1427.75146     298.9698     245.7160   1427.75146     298.9698     245.7160
   1427.73621     299.8625     246.4590   1427.73621     299.8625     246.4590
   1427.72095     300.5622     247.0143   1427.72095     300.5622     247.0143
   1427.70569     301.1238     248.3398   1427.70569     301.1238     248.3398
   1427.69043     302.1193     248.5728   1427.69043     302.1193     248.5728
   1427.67517     302.5875     249.5915   1427.67517     302.5875     249.5915
   1427.65991     303.8485     250.4055   1427.65991     303.8485     250.4055
   1427.64465     304.8568     251.5262   1427.64465     304.8568     251.5262
   1427.62939     306.0446     252.4121   1427.62939     306.0446     252.4121
   1427.61414     306.7726     252.9334   1427.61414     306.7726     252.9334
   1427.59888     307.7755     254.1801   1427.59888     307.7755     254.1801
   1427.58362     309.2367     255.3905   1427.58362     309.2367     255.3905
   1427.56836     310.1913     256.0166   1427.56836     310.1913     256.0166
   1427.55310     311.5085     257.4922   1427.55310     311.5085     257.4922
   1427.53784     312.5656     258.0625   1427.53784     312.5656     258.0625
   1427.52258     314.0169     259.6880   1427.52258     314.0169     259.6880
   1427.50732     315.1954     260.9302   1427.50732     315.1954     260.9302
   1427.49207     316.8449     261.8212   1427.49207     316.8449     261.8212
   1427.47681     318.2183     262.8158   1427.47681     318.2183     262.8158
   1427.46155     319.5925     264.2932   1427.46155     319.5925     264.2932
   1427.44629     320.9800     265.7191   1427.44629     320.9800     265.7191
   1427.43103     322.3171     266.8835   1427.43103     322.3171     266.8835
   1427.41577     324.4356     267.8791   1427.41577     324.4356     267.8791
   1427.40051     325.7160     269.6868   1427.40051     325.7160     269.6868
   1427.38525     327.8065     271.1726   1427.38525     327.8065     271.1726
   1427.37000     329.1157     272.6740   1427.37000     329.1157     272.6740
   1427.35474     330.5202     274.3556   1427.35474     330.5202     274.3556
   1427.33948     332.2563     275.9144   1427.33948     332.2563     275.9144
   1427.32422     334.5639     276.8914   1427.32422     334.5639     276.8914
   1427.30896     335.7865     278.6687   1427.30896     335.7865     278.6687
   1427.29370     338.0294     280.7023   1427.29370     338.0294     280.7023
   1427.27844     339.9751     281.7907   1427.27844     339.9751     281.7907
   1427.26318     342.0968     282.8623   1427.26318     342.0968     282.8623
   1427.24792     343.8429     285.0389   1427.24792     343.8429     285.0389
   1427.23267     345.6766     287.3371   1427.23267     345.6766     287.3371
   1427.21741     347.5370     288.4509   1427.21741     347.5370     288.4509
   1427.20215     348.8360     290.6423   1427.20215     348.8360     290.6423
   1427.18689     350.9758     292.2858   1427.18689     350.9758     292.2858
   1427.17163     353.6671     293.6243   1427.17163     353.6671     293.6243
   1427.15637     355.8676     295.6646   1427.15637     355.8676     295.6646
   1427.14111     358.1274     297.8031   1427.14111     358.1274     297.8031
   1427.12585     359.6028     299.3260   1427.12585     359.6028     299.3260
   1427.11060     362.1378     302.0188   1427.11060     362.1378     302.0188
   1427.09534     364.3447     303.1743   1427.09534     364.3447     303.1743
   1427.08008     365.6696     305.0931   1427.08008     365.6696     305.0931
   1427.06482     368.9023     307.0254   1427.06482     368.9023     307.0254
   1427.04956     370.4023     309.4809   1427.04956     370.4023     309.4809
   1427.03430     372.4535     311.1984   1427.03430     372.4535     311.1984
   1427.01904     375.6305     313.0929   1427.01904     375.6305     313.0929
   1427.00378     377.3098     314.6888   1427.00378     377.3098     314.6888
   1426.98853     379.4174     316.8109   1426.98853     379.4174     316.8109
   1426.97327     382.0460     318.6519   1426.97327     382.0460     318.6519
   1426.95801     385.1423     320.5990   1426.95801     385.1423     320.5990
   1426.94275     387.3218     322.7012   1426.94275     387.3218     322.7012
   1426.92749     388.7146     324.8123   1426.92749     388.7146     324.8123
   1426.91223     391.4380     326.7313   1426.91223     391.4380     326.7313
   1426.89697     394.3467     328.6253   1426.89697     394.3467     328.6253
   1426.88171     396.5359     331.3091   1426.88171     396.5359     331.3091
   1426.86646     398.3558     333.1865   1426.86646     398.3558     333.1865
   1426.85120     401.0578     334.4523   1426.85120     401.0578     334.4523
   1426.83594     403.7676     336.7802   1426.83594     403.7676     336.7802
   1426.82068     405.7866     338.8370   1426.82068     405.7866     338.8370
   1426.80542     408.5305     341.3110   1426.80542     408.5305     341.3110
   1426.79016     410.8723     343.7321   1426.79016     410.8723     343.7321
   1426.77490     412.9484     345.9005   1426.77490     412.9484     345.9005
   1426.75964     416.5155     347.4741   1426.75964     416.5155     347.4741
   1426.74438     418.0072     350.1501   1426.74438     418.0072     350.1501
   1426.72913     420.5661     351.5448   1426.72913     420.5661     351.5448
   1426.71387     422.5329     354.2185   1426.71387     422.5329     354.2185
   1426.69861     425.8449     355.7675   1426.69861     425.8449     355.7675
   1426.68335     427.9749     357.9242   1426.68335     427.9749     357.9242
   1426.66809     430.7352     360.2724   1426.66809     430.7352     360.2724
   1426.65283     433.0073     362.4026   1426.65283     433.0073     362.4026
   1426.63757     436.2789     364.1873   1426.63757     436.2789     364.1873
   1426.62231     439.1884     366.9531   1426.62231     439.1884     366.9531
   1426.60706     440.5426     368.3745   1426.60706     440.5426     368.3745
   1426.59180     443.3588     370.2677   1426.59180     443.3588     370.2677
   1426.57654     445.1833     372.8067   1426.57654     445.1833     372.8067
   1426.56128     447.7426     374.5042   1426.56128     447.7426     374.5042
   1426.54602     450.5807     376.6018   1426.54602     450.5807     376.6018
   1426.53076     452.8600     379.2641   1426.53076     452.8600     379.2641
   1426.51550     455.4969     380.9887   1426.51550     455.4969     380.9887
   1426.50024     457.0680     382.2866   1426.50024     457.0680     382.2866
   1426.48499     460.0672     384.2864   1426.48499     460.0672     384.2864
   1426.46973     463.0601     387.0109   1426.46973     463.0601     387.0109
   1426.45447     465.0763     389.2492   1426.45447     465.0763     389.2492
   1426.43921     467.2134     390.4158   1426.43921     467.2134     390.4158
   1426.42395     469.5896     393.5107   1426.42395     469.5896     393.5107
   1426.40869     471.8629     394.7154   1426.40869     471.8629     394.7154
   1426.39343     475.3124     396.3237   1426.39343     475.3124     396.3237
   1426.37817     477.2888     399.1146   1426.37817     477.2888     399.1146
   1426.36292     479.3708     400.1185   1426.36292     479.3708     400.1185
   1426.34766     482.2854     402.8858   1426.34766     482.2854     402.8858
   1426.33240     483.9367     405.2211   1426.33240     483.9367     405.2211
   1426.31714     485.9738     407.1815   1426.31714     485.9738     407.1815
   1426.30188     488.6977     408.9007   1426.30188     488.6977     408.9007
   1426.28662     491.1299     410.1143   1426.28662     491.1299     410.1143
   1426.27136     493.2475     412.3490   1426.27136     493.2475     412.3490
   1426.25610     495.4213     414.2075   1426.25610     495.4213     414.2075
   1426.24084     497.3794     416.7735   1426.24084     497.3794     416.7735
   1426.22559     500.3453     418.7689   1426.22559     500.3453     418.7689
   1426.21033     501.6388     419.4839   1426.21033     501.6388     419.4839
   1426.19507     504.2141     421.2799   1426.19507     504.2141     421.2799
   1426.17981     506.7998     423.9484   1426.17981     506.7998     423.9484
   1426.16455     508.6872     425.5669   1426.16455     508.6872     425.5669
   1426.14929     511.1860     427.6868   1426.14929     511.1860     427.6868
   1426.13403     512.6873     428.8442   1426.13403     512.6873     428.8442
   1426.11877     514.8746     431.2121   1426.11877     514.8746     431.2121
   1426.10352     516.3401     432.5230   1426.10352     516.3401     432.5230
   1426.08826     518.7441     434.7397   1426.08826     518.7441     434.7397
   1426.07300     521.0954     435.5234   1426.07300     521.0954     435.5234
   1426.05774     523.0058     437.9764   1426.05774     523.0058     437.9764
   1426.04248     525.0739     439.4612   1426.04248     525.0739     439.4612
   1426.02722     526.3968     441.4045   1426.02722     526.3968     441.4045
   1426.01196     529.1042     443.0216   1426.01196     529.1042     443.0216
   1425.99670     529.8148     444.4641   1425.99670     529.8148     444.4641
   1425.98145     531.6967     445.3840   1425.98145     531.6967     445.3840
   1425.96619     533.9803     448.1891   1425.96619     533.9803     448.1891
   1425.95093     535.9481     449.6826   1425.95093     535.9481     449.6826
   1425.93567     538.5099     450.9482   1425.93567     538.5099     450.9482
   1425.92041     539.7501     453.3392   1425.92041     539.7501     453.3392
   1425.90515     541.5273     454.0325   1425.90515     541.5273     454.0325
   1425.88989     543.2704     455.9382   1425.88989     543.2704     455.9382
   1425.87463     544.8389     457.0354   1425.87463     544.8389     457.0354
   1425.85938     546.2404     458.3477   1425.85938     546.2404     458.3477
   1425.84412     548.0999     460.4776   1425.84412     548.0999     460.4776
   1425.82886     550.7146     461.5024   1425.82886     550.7146     461.5024
   1425.81360     551.7550     463.3106   1425.81360     551.7550     463.3106
   1425.79834     553.1297     465.2742   1425.79834     553.1297     465.2742
   1425.78308     555.3327     466.3699   1425.78308     555.3327     466.3699
   1425.76782     557.0464     467.9866   1425.76782     557.0464     467.9866
   1425.75256     557.4769     468.9719   1425.75256     557.4769     468.9719
   1425.73730     560.0219     470.2199   1425.73730     560.0219     470.2199
   1425.72205     560.3499     471.3906   1425.72205     560.3499     471.3906
   1425.70679     561.7955     473.0101   1425.70679     561.7955     473.0101
   1425.69153     564.4089     474.6226   1425.69153     564.4089     474.6226
   1425.67627     565.7884     476.2222   1425.67627     565.7884     476.2222
   1425.66101     566.9462     476.8754   1425.66101     566.9462     476.8754
   1425.64575     568.1574     478.2925   1425.64575     568.1574     478.2925
   1425.63049     568.9742     479.2279   1425.63049     568.9742     479.2279
   1425.61523     570.3226     481.3385   1425.61523     570.3226     481.3385
   1425.59998     570.6954     482.2292   1425.59998     570.6954     482.2292
   1425.58472     574.3584     484.2434   1425.58472     574.3584     484.2434
   1425.56946     574.0739     485.2022   1425.56946     574.0739     485.2022
   1425.55420     575.4700     484.7523   1425.55420     575.4700     484.7523
   1425.53894     576.9921     486.7424   1425.53894     576.9921     486.7424
   1425.52368     577.4893     489.0264   1425.52368     577.4893     489.0264
   1425.50842     579.0357     489.4277   1425.50842     579.0357     489.4277
   1425.49316     580.1096     490.0956   1425.49316     580.1096     490.0956
   1425.47791     580.9936     492.2162   1425.47791     580.9936     492.2162
   1425.46265     583.7271     492.4453   1425.46265     583.7271     492.4453
   1425.44739     583.9147     494.3040   1425.44739     583.9147     494.3040
   1425.43213     584.7294     495.4778   1425.43213     584.7294     495.4778
   1425.41687     584.4515     496.4289   1425.41687     584.4515     496.4289
   1425.40161     585.9164     497.9001   1425.40161     585.9164     497.9001
   1425.38635     587.0731     499.1253   1425.38635     587.0731     499.1253
   1425.37109     587.5262     499.7736   1425.37109     587.5262     499.7736
   1425.35583     587.8755     500.1551   1425.35583     587.8755     500.1551
   1425.34058     589.4819     501.9969   1425.34058     589.4819     501.9969
   1425.32532     590.6246     503.3453   1425.32532     590.6246     503.3453
   1425.31006     591.9664     504.0869   1425.31006     591.9664     504.0869
   1425.29480     593.6131     505.0474   1425.29480     593.6131     505.0474
   1425.27954     593.0171     506.4203   1425.27954     593.0171     506.4203
   1425.26428     593.9918     506.6938   1425.26428     593.9918     506.6938
   1425.24902     595.1337     508.3737   1425.24902     595.1337     508.3737
   1425.23376     594.9426     509.1216   1425.23376     594.9426     509.1216
   1425.21851     595.5972     509.9023   1425.21851     595.5972     509.9023
   1425.20325     595.9755     510.2871   1425.20325     595.9755     510.2871
   1425.18799     597.2584     511.6556   1425.18799     597.2584     511.6556
   1425.17273     597.4759     512.7070   1425.17273     597.4759     512.7070
   1425.15747     597.9951     513.4637   1425.15747     597.9951     513.4637
   1425.14221     599.0711     513.8301   1425.14221     599.0711     513.8301
   1425.12695     599.6970     515.1614   1425.12695     599.6970     515.1614
   1425.11169     599.8751     516.3705   1425.11169     599.8751     516.3705
   1425.09644     600.7252     516.9415   1425.09644     600.7252     516.9415
   1425.08118     601.3815     518.6688   1425.08118     601.3815     518.6688
   1425.06592     601.9523     519.2734   1425.06592     601.9523     519.2734
   1425.05066     602.0219     519.8700   1425.05066     602.0219     519.8700
   1425.03540     602.9047     520.5563   1425.03540     602.9047     520.5563
   1425.02014     602.1828     520.6723   1425.02014     602.1828     520.6723
   1425.00488     603.6859     522.2627   1425.00488     603.6859     522.2627
   1424.98962     603.1033     523.9215   1424.98962     603.1033     523.9215
   1424.97437     603.6251     524.7259   1424.97437     603.6251     524.7259
   1424.95911     604.6001     525.1608   1424.95911     604.6001     525.1608
   1424.94385     604.3736     525.4495   1424.94385     604.3736     525.4495
   1424.92859     605.1087     526.1517   1424.92859     605.1087     526.1517
   1424.91333     605.2519     526.3770   1424.91333     605.2519     526.3770
   1424.89807     605.7008     528.3987   1424.89807     605.7008     528.3987
   1424.88281     605.2774     529.0872   1424.88281     605.2774     529.0872
   1424.86755     605.5225     529.5909   1424.86755     605.5225     529.5909
   1424.85229     605.9459     529.7711   1424.85229     605.9459     529.7711
   1424.83704     607.2363     530.4568   1424.83704     607.2363     530.4568
   1424.82178     607.3738     532.3117   1424.82178     607.3738     532.3117
   1424.80652     607.5786     532.1142   1424.80652     607.5786     532.1142
   1424.79126     607.2507     532.8012   1424.79126     607.2507     532.8012
   1424.77600     607.8515     533.3416   1424.77600     607.8515     533.3416
   1424.76074     607.6208     533.7802   1424.76074     607.6208     533.7802
   1424.74548     607.5615     535.5182   1424.74548     607.5615     535.5182
   1424.73022     607.6324     535.5241   1424.73022     607.6324     535.5241
   1424.71497     608.4734     535.7847   1424.71497     608.4734     535.7847
   1424.69971     607.7414     536.7096   1424.69971     607.7414     536.7096
   1424.68445     608.6787     536.4880   1424.68445     608.6787     536.4880
   1424.66919     608.1473     538.2803   1424.66919     608.1473     538.2803
   1424.65393     608.8555     538.5627   1424.65393     608.8555     538.5627
   1424.63867     608.0032     537.7251   1424.63867     608.0032     537.7251
   1424.62341     607.9778     540.1793   1424.62341     607.9778     540.1793
   1424.60815     607.6915     540.4857   1424.60815     607.6915     540.4857
   1424.59290     608.0208     541.1407   1424.59290     608.0208     541.1407
   1424.57764     608.5241     541.3281   1424.57764     608.5241     541.3281
   1424.56238     608.2576     542.1249   1424.56238     608.2576     542.1249
   1424.54712     609.0301     541.5403   1424.54712     609.0301     541.5403
   1424.53186     608.6573     543.3337   1424.53186     608.6573     543.3337
   1424.51660     609.1564     543.3452   1424.51660     609.1564     543.3452
   1424.50134     608.0737     543.6392   1424.50134     608.0737     543.6392
   1424.48608     608.8645     544.7735   1424.48608     608.8645     544.7735
   1424.47083     609.7014     546.1428   1424.47083     609.7014     546.1428
   1424.45557     608.2950     544.2619   1424.45557     608.2950     544.2619
   1424.44031     607.9977     546.5096   1424.44031     607.9977     546.5096
   1424.42505     608.6362     546.9216   1424.42505     608.6362     546.9216
   1424.40979     607.5347     547.0525   1424.40979     607.5347     547.0525
   1424.39453     608.0702     547.6095   1424.39453     608.0702     547.6095
   1424.37927     608.7813     547.8037   1424.37927     608.7813     547.8037
   1424.36401     607.7307     547.9890   1424.36401     607.7307     547.9890
   1424.34875     607.1931     549.0983   1424.34875     607.1931     549.0983
   1424.33350     608.7813     548.9869   1424.33350     608.7813     548.9869
   1424.31824     607.2882     549.6041   1424.31824     607.2882     549.6041
   1424.30298     607.9022     549.9286   1424.30298     607.9022     549.9286
   1424.28772     608.6025     549.9621   1424.28772     608.6025     549.9621
   1424.27246     607.2405     550.4793   1424.27246     607.2405     550.4793
   1424.25720     606.1831     551.0997   1424.25720     606.1831     551.0997
   1424.24194     606.7736     551.9190   1424.24194     606.7736     551.9190
   1424.22668     606.4691     551.3689   1424.22668     606.4691     551.3689
   1424.21143     607.1165     551.7798   1424.21143     607.1165     551.7798
   1424.19617     606.0012     552.5384   1424.19617     606.0012     552.5384
   1424.18091     606.7866     552.6104   1424.18091     606.7866     552.6104
   1424.16565     606.3163     552.9735   1424.16565     606.3163     552.9735
