#     FILENAME=!Skynet_57528_lach-cc-181_20569_21004.cyb.fits
#     BASENAME=Skynet_57528_lach-cc-181_20569_21004
#     SRC_NAME=lach-cc-181
#     OBSERVER=ccmadison16_9505
#     DATE_OBS=2016-05-20T18:42:10.430
#        OBSID=20569
#      SCANNUM=21004
#          MJD=57528.7803
#          UTC=67420
#     SCANTYPE=track
#     DATAMODE=HIRES
#     TUNEFREQ=1420.0000
# Actual_FREQ1=1420.0000
# Actual_FREQ2=1420.0000
#    LO1Tuning=6870.000
#     RFFILTER=1355_1435
#        OBSBW=-15.6250
#        NCHAN=1024 
#        FOCUS=37.0709
#           RA=05:47:56.35
#          DEC=28:04:52.81
#      RA(hrs)=5.799000
#     DEC(deg)=28.081300
#    AZIM(deg)=145.552
#    ELEV(deg)=77.724
#     IFattens=10.00, 9.00
#      WARNING=None
#    TCAL_XL1=7.9635
#    TCAL_YR1=9.1340
#    TCAL_XL2=7.9635
#    TCAL_YR2=9.1340
#     TRX_XL1=11.7060
#     TRX_YR1=11.7060
#     TRX_XL2=11.7060
#     TRX_YR2=11.7060
#        TAVE=1.0000
#Freq1(MHz)          XL1          YR1  Freq2(MHz)          XL2          YR2 

   1427.81250     377.3746     345.9105   1427.81250     377.3746     345.9105
   1427.79724     378.0914     346.5770   1427.79724     378.0914     346.5770
   1427.78198     379.2758     348.1279   1427.78198     379.2758     348.1279
   1427.76672     379.1658     349.9144   1427.76672     379.1658     349.9144
   1427.75146     380.7330     351.1764   1427.75146     380.7330     351.1764
   1427.73621     382.1239     353.2751   1427.73621     382.1239     353.2751
   1427.72095     382.2704     355.0533   1427.72095     382.2704     355.0533
   1427.70569     383.3727     356.3463   1427.70569     383.3727     356.3463
   1427.69043     383.4140     357.9156   1427.69043     383.4140     357.9156
   1427.67517     384.6324     359.5749   1427.67517     384.6324     359.5749
   1427.65991     386.2256     361.7140   1427.65991     386.2256     361.7140
   1427.64465     387.7002     363.3243   1427.64465     387.7002     363.3243
   1427.62939     388.6272     364.4316   1427.62939     388.6272     364.4316
   1427.61414     389.8440     366.7241   1427.61414     389.8440     366.7241
   1427.59888     391.5080     368.6864   1427.59888     391.5080     368.6864
   1427.58362     392.5316     370.7261   1427.58362     392.5316     370.7261
   1427.56836     393.9104     372.1372   1427.56836     393.9104     372.1372
   1427.55310     396.2141     374.2584   1427.55310     396.2141     374.2584
   1427.53784     396.5384     376.5947   1427.53784     396.5384     376.5947
   1427.52258     398.6407     378.2281   1427.52258     398.6407     378.2281
   1427.50732     399.9660     380.3470   1427.50732     399.9660     380.3470
   1427.49207     402.1884     382.4038   1427.49207     402.1884     382.4038
   1427.47681     403.9393     384.9845   1427.47681     403.9393     384.9845
   1427.46155     405.4193     386.9544   1427.46155     405.4193     386.9544
   1427.44629     407.3959     388.3760   1427.44629     407.3959     388.3760
   1427.43103     409.0765     391.1483   1427.43103     409.0765     391.1483
   1427.41577     409.9816     392.7332   1427.41577     409.9816     392.7332
   1427.40051     412.3979     395.0660   1427.40051     412.3979     395.0660
   1427.38525     414.2167     398.1618   1427.38525     414.2167     398.1618
   1427.37000     416.9806     399.8405   1427.37000     416.9806     399.8405
   1427.35474     418.1223     402.6650   1427.35474     418.1223     402.6650
   1427.33948     420.0065     404.8941   1427.33948     420.0065     404.8941
   1427.32422     422.9492     406.3721   1427.32422     422.9492     406.3721
   1427.30896     425.6281     409.9250   1427.30896     425.6281     409.9250
   1427.29370     427.0523     411.3807   1427.29370     427.0523     411.3807
   1427.27844     429.0703     414.0826   1427.27844     429.0703     414.0826
   1427.26318     431.4335     416.3902   1427.26318     431.4335     416.3902
   1427.24792     434.6998     419.3520   1427.24792     434.6998     419.3520
   1427.23267     436.4674     421.9040   1427.23267     436.4674     421.9040
   1427.21741     438.3975     423.9535   1427.21741     438.3975     423.9535
   1427.20215     441.1080     426.7003   1427.20215     441.1080     426.7003
   1427.18689     444.3189     428.8101   1427.18689     444.3189     428.8101
   1427.17163     446.0629     431.4335   1427.17163     446.0629     431.4335
   1427.15637     448.3858     433.9872   1427.15637     448.3858     433.9872
   1427.14111     451.3130     436.0201   1427.14111     451.3130     436.0201
   1427.12585     454.1144     438.4263   1427.12585     454.1144     438.4263
   1427.11060     456.4322     441.5400   1427.11060     456.4322     441.5400
   1427.09534     459.4948     443.8469   1427.09534     459.4948     443.8469
   1427.08008     461.7234     445.9325   1427.08008     461.7234     445.9325
   1427.06482     464.0909     448.6493   1427.06482     464.0909     448.6493
   1427.04956     467.7461     450.9034   1427.04956     467.7461     450.9034
   1427.03430     470.4573     453.9586   1427.03430     470.4573     453.9586
   1427.01904     472.5952     455.5683   1427.01904     472.5952     455.5683
   1427.00378     476.2365     458.8506   1427.00378     476.2365     458.8506
   1426.98853     478.3239     461.2440   1426.98853     478.3239     461.2440
   1426.97327     481.3331     464.0759   1426.97327     481.3331     464.0759
   1426.95801     484.2314     466.1411   1426.95801     484.2314     466.1411
   1426.94275     486.5483     468.7325   1426.94275     486.5483     468.7325
   1426.92749     489.7653     471.1485   1426.92749     489.7653     471.1485
   1426.91223     493.1845     473.8686   1426.91223     493.1845     473.8686
   1426.89697     496.6085     476.3745   1426.89697     496.6085     476.3745
   1426.88171     499.1583     478.4272   1426.88171     499.1583     478.4272
   1426.86646     501.9145     481.1973   1426.86646     501.9145     481.1973
   1426.85120     504.4885     483.3904   1426.85120     504.4885     483.3904
   1426.83594     509.1698     486.6154   1426.83594     509.1698     486.6154
   1426.82068     511.2901     489.3631   1426.82068     511.2901     489.3631
   1426.80542     514.2585     490.9155   1426.80542     514.2585     490.9155
   1426.79016     516.6045     494.0115   1426.79016     516.6045     494.0115
   1426.77490     520.4473     496.0396   1426.77490     520.4473     496.0396
   1426.75964     523.3469     497.9396   1426.75964     523.3469     497.9396
   1426.74438     526.5669     500.8798   1426.74438     526.5669     500.8798
   1426.72913     528.5699     503.2428   1426.72913     528.5699     503.2428
   1426.71387     533.1238     505.8316   1426.71387     533.1238     505.8316
   1426.69861     535.4042     507.9570   1426.69861     535.4042     507.9570
   1426.68335     538.6918     510.7012   1426.68335     538.6918     510.7012
   1426.66809     542.4091     512.3051   1426.66809     542.4091     512.3051
   1426.65283     545.4512     515.8710   1426.65283     545.4512     515.8710
   1426.63757     549.1824     516.7717   1426.63757     549.1824     516.7717
   1426.62231     552.3690     520.1313   1426.62231     552.3690     520.1313
   1426.60706     555.1210     521.3954   1426.60706     555.1210     521.3954
   1426.59180     557.2012     524.9231   1426.59180     557.2012     524.9231
   1426.57654     560.8216     526.8442   1426.57654     560.8216     526.8442
   1426.56128     563.4570     527.8967   1426.56128     563.4570     527.8967
   1426.54602     567.0389     530.2783   1426.54602     567.0389     530.2783
   1426.53076     570.7145     533.6129   1426.53076     570.7145     533.6129
   1426.51550     573.3542     535.4727   1426.51550     573.3542     535.4727
   1426.50024     576.8673     538.0988   1426.50024     576.8673     538.0988
   1426.48499     580.1733     540.4257   1426.48499     580.1733     540.4257
   1426.46973     581.9294     541.8173   1426.46973     581.9294     541.8173
   1426.45447     586.9335     544.2043   1426.45447     586.9335     544.2043
   1426.43921     588.7462     547.1219   1426.43921     588.7462     547.1219
   1426.42395     592.6508     548.5306   1426.42395     592.6508     548.5306
   1426.40869     595.2815     550.3668   1426.40869     595.2815     550.3668
   1426.39343     598.6061     552.2656   1426.39343     598.6061     552.2656
   1426.37817     600.8306     554.0125   1426.37817     600.8306     554.0125
   1426.36292     604.5505     556.6553   1426.36292     604.5505     556.6553
   1426.34766     606.4500     558.8072   1426.34766     606.4500     558.8072
   1426.33240     610.2612     561.3281   1426.33240     610.2612     561.3281
   1426.31714     613.0393     562.9600   1426.31714     613.0393     562.9600
   1426.30188     616.1667     563.9899   1426.30188     616.1667     563.9899
   1426.28662     619.7272     567.0602   1426.28662     619.7272     567.0602
   1426.27136     621.9351     568.0826   1426.27136     621.9351     568.0826
   1426.25610     624.7720     569.5000   1426.25610     624.7720     569.5000
   1426.24084     627.0291     571.8502   1426.24084     627.0291     571.8502
   1426.22559     630.5980     573.0983   1426.22559     630.5980     573.0983
   1426.21033     634.4023     575.1232   1426.21033     634.4023     575.1232
   1426.19507     635.7108     577.3881   1426.19507     635.7108     577.3881
   1426.17981     639.7363     579.5109   1426.17981     639.7363     579.5109
   1426.16455     642.1647     580.7572   1426.16455     642.1647     580.7572
   1426.14929     644.8904     582.7025   1426.14929     644.8904     582.7025
   1426.13403     647.7700     584.6005   1426.13403     647.7700     584.6005
   1426.11877     650.3091     585.9343   1426.11877     650.3091     585.9343
   1426.10352     652.6222     587.1893   1426.10352     652.6222     587.1893
   1426.08826     656.0952     589.4387   1426.08826     656.0952     589.4387
   1426.07300     658.0844     590.4789   1426.07300     658.0844     590.4789
   1426.05774     660.9706     592.3605   1426.05774     660.9706     592.3605
   1426.04248     662.8633     594.1837   1426.04248     662.8633     594.1837
   1426.02722     667.1981     595.1938   1426.02722     667.1981     595.1938
   1426.01196     669.2307     596.9535   1426.01196     669.2307     596.9535
   1425.99670     671.3549     599.5068   1425.99670     671.3549     599.5068
   1425.98145     673.7605     599.9814   1425.98145     673.7605     599.9814
   1425.96619     676.4625     601.2297   1425.96619     676.4625     601.2297
   1425.95093     677.8874     602.2241   1425.95093     677.8874     602.2241
   1425.93567     680.0446     603.0807   1425.93567     680.0446     603.0807
   1425.92041     683.1169     605.5984   1425.92041     683.1169     605.5984
   1425.90515     685.8268     606.2190   1425.90515     685.8268     606.2190
   1425.88989     688.6898     607.5425   1425.88989     688.6898     607.5425
   1425.87463     691.2952     609.1036   1425.87463     691.2952     609.1036
   1425.85938     692.6934     611.1937   1425.85938     692.6934     611.1937
   1425.84412     694.7449     610.5413   1425.84412     694.7449     610.5413
   1425.82886     696.3096     613.1280   1425.82886     696.3096     613.1280
   1425.81360     699.7599     613.8410   1425.81360     699.7599     613.8410
   1425.79834     701.6779     615.9359   1425.79834     701.6779     615.9359
   1425.78308     704.1686     613.9977   1425.78308     704.1686     613.9977
   1425.76782     705.2305     616.8293   1425.76782     705.2305     616.8293
   1425.75256     707.1577     618.0521   1425.75256     707.1577     618.0521
   1425.73730     709.7404     620.1133   1425.73730     709.7404     620.1133
   1425.72205     712.4836     619.9372   1425.72205     712.4836     619.9372
   1425.70679     714.2896     621.1513   1425.70679     714.2896     621.1513
   1425.69153     714.5202     622.6964   1425.69153     714.5202     622.6964
   1425.67627     718.4188     623.8785   1425.67627     718.4188     623.8785
   1425.66101     718.1555     624.1450   1425.66101     718.1555     624.1450
   1425.64575     721.5348     625.3214   1425.64575     721.5348     625.3214
   1425.63049     722.1776     627.8035   1425.63049     722.1776     627.8035
   1425.61523     724.2528     627.2055   1425.61523     724.2528     627.2055
   1425.59998     726.3282     628.0444   1425.59998     726.3282     628.0444
   1425.58472     728.0945     629.1687   1425.58472     728.0945     629.1687
   1425.56946     729.5023     629.9327   1425.56946     729.5023     629.9327
   1425.55420     731.1284     631.1934   1425.55420     731.1284     631.1934
   1425.53894     733.1255     631.4572   1425.53894     733.1255     631.4572
   1425.52368     734.6121     631.1733   1425.52368     734.6121     631.1733
   1425.50842     736.4230     634.1505   1425.50842     736.4230     634.1505
   1425.49316     736.6962     633.5819   1425.49316     736.6962     633.5819
   1425.47791     738.5217     634.6309   1425.47791     738.5217     634.6309
   1425.46265     738.7723     635.6242   1425.46265     738.7723     635.6242
   1425.44739     741.6035     635.6870   1425.44739     741.6035     635.6870
   1425.43213     743.9152     636.2465   1425.43213     743.9152     636.2465
   1425.41687     743.7492     636.6226   1425.41687     743.7492     636.6226
   1425.40161     745.5456     637.5344   1425.40161     745.5456     637.5344
   1425.38635     745.8211     638.8949   1425.38635     745.8211     638.8949
   1425.37109     746.4481     638.7416   1425.37109     746.4481     638.7416
   1425.35583     749.0516     637.6646   1425.35583     749.0516     637.6646
   1425.34058     750.1531     639.9105   1425.34058     750.1531     639.9105
   1425.32532     752.1792     639.2622   1425.32532     752.1792     639.2622
   1425.31006     752.6894     639.5901   1425.31006     752.6894     639.5901
   1425.29480     754.2803     640.9140   1425.29480     754.2803     640.9140
   1425.27954     754.2914     640.5991   1425.27954     754.2914     640.5991
   1425.26428     755.0371     640.9277   1425.26428     755.0371     640.9277
   1425.24902     755.9595     641.9163   1425.24902     755.9595     641.9163
   1425.23376     757.8328     641.7136   1425.23376     757.8328     641.7136
   1425.21851     758.6002     641.0900   1425.21851     758.6002     641.0900
   1425.20325     760.0766     641.9736   1425.20325     760.0766     641.9736
   1425.18799     760.9914     642.6044   1425.18799     760.9914     642.6044
   1425.17273     760.0676     643.0921   1425.17273     760.0676     643.0921
   1425.15747     762.0237     643.5132   1425.15747     762.0237     643.5132
   1425.14221     761.2905     643.7712   1425.14221     761.2905     643.7712
   1425.12695     762.7249     644.1465   1425.12695     762.7249     644.1465
   1425.11169     764.1178     644.2102   1425.11169     764.1178     644.2102
   1425.09644     764.7247     643.4292   1425.09644     764.7247     643.4292
   1425.08118     765.5503     644.1379   1425.08118     765.5503     644.1379
   1425.06592     766.1906     643.4434   1425.06592     766.1906     643.4434
   1425.05066     766.1306     642.7469   1425.05066     766.1306     642.7469
   1425.03540     767.9481     644.7495   1425.03540     767.9481     644.7495
   1425.02014     767.4696     644.0182   1425.02014     767.4696     644.0182
   1425.00488     767.7882     644.5488   1425.00488     767.7882     644.5488
   1424.98962     768.3486     644.6221   1424.98962     768.3486     644.6221
   1424.97437     769.1867     644.4166   1424.97437     769.1867     644.4166
   1424.95911     769.6887     645.0446   1424.95911     769.6887     645.0446
   1424.94385     770.3075     644.9224   1424.94385     770.3075     644.9224
   1424.92859     768.7664     645.0757   1424.92859     768.7664     645.0757
   1424.91333     770.2338     644.1339   1424.91333     770.2338     644.1339
   1424.89807     770.4257     643.3700   1424.89807     770.4257     643.3700
   1424.88281     771.1127     644.9017   1424.88281     771.1127     644.9017
   1424.86755     770.7937     644.0552   1424.86755     770.7937     644.0552
   1424.85229     770.4420     644.4520   1424.85229     770.4420     644.4520
   1424.83704     771.1083     643.0948   1424.83704     771.1083     643.0948
   1424.82178     772.6002     644.2764   1424.82178     772.6002     644.2764
   1424.80652     771.7632     643.2848   1424.80652     771.7632     643.2848
   1424.79126     772.3742     643.9279   1424.79126     772.3742     643.9279
   1424.77600     772.3163     642.5184   1424.77600     772.3163     642.5184
   1424.76074     771.6957     644.3738   1424.76074     771.6957     644.3738
   1424.74548     772.2270     642.8937   1424.74548     772.2270     642.8937
   1424.73022     772.0103     642.2624   1424.73022     772.0103     642.2624
   1424.71497     772.8433     643.0132   1424.71497     772.8433     643.0132
   1424.69971     773.3322     642.4835   1424.69971     773.3322     642.4835
   1424.68445     772.5632     641.2473   1424.68445     772.5632     641.2473
   1424.66919     773.1846     641.5542   1424.66919     773.1846     641.5542
   1424.65393     772.3269     641.1018   1424.65393     772.3269     641.1018
   1424.63867     773.0441     640.2155   1424.63867     773.0441     640.2155
   1424.62341     772.9782     639.7867   1424.62341     772.9782     639.7867
   1424.60815     772.4279     640.7812   1424.60815     772.4279     640.7812
   1424.59290     772.1666     639.5586   1424.59290     772.1666     639.5586
   1424.57764     772.2107     639.5739   1424.57764     772.2107     639.5739
   1424.56238     771.7756     638.8437   1424.56238     771.7756     638.8437
   1424.54712     772.5667     638.2585   1424.54712     772.5667     638.2585
   1424.53186     772.2887     638.9473   1424.53186     772.2887     638.9473
   1424.51660     770.2319     637.9270   1424.51660     770.2319     637.9270
   1424.50134     771.8353     637.2074   1424.50134     771.8353     637.2074
   1424.48608     771.0599     636.5754   1424.48608     771.0599     636.5754
   1424.47083     771.1455     636.7809   1424.47083     771.1455     636.7809
   1424.45557     769.8740     635.6574   1424.45557     769.8740     635.6574
   1424.44031     769.4042     633.5996   1424.44031     769.4042     633.5996
   1424.42505     769.5220     634.1749   1424.42505     769.5220     634.1749
   1424.40979     770.6497     634.0156   1424.40979     770.6497     634.0156
   1424.39453     769.2927     634.2289   1424.39453     769.2927     634.2289
   1424.37927     769.2074     633.6170   1424.37927     769.2074     633.6170
   1424.36401     768.9208     633.3461   1424.36401     768.9208     633.3461
   1424.34875     769.2511     632.5289   1424.34875     769.2511     632.5289
   1424.33350     767.4685     632.4914   1424.33350     767.4685     632.4914
   1424.31824     767.2975     631.4808   1424.31824     767.2975     631.4808
   1424.30298     768.3252     631.7152   1424.30298     768.3252     631.7152
   1424.28772     767.7667     629.5380   1424.28772     767.7667     629.5380
   1424.27246     766.5535     628.7195   1424.27246     766.5535     628.7195
   1424.25720     765.7586     628.2081   1424.25720     765.7586     628.2081
   1424.24194     765.7017     627.2637   1424.24194     765.7017     627.2637
   1424.22668     765.6715     627.7957   1424.22668     765.6715     627.7957
   1424.21143     766.3481     626.5723   1424.21143     766.3481     626.5723
   1424.19617     764.4151     626.8007   1424.19617     764.4151     626.8007
   1424.18091     765.1011     626.4806   1424.18091     765.1011     626.4806
   1424.16565     764.7443     624.1074   1424.16565     764.7443     624.1074
