#     FILENAME=!Skynet_57528_lach-hhg-105_20361_20912.cyb.fits
#     BASENAME=Skynet_57528_lach-hhg-105_20361_20912
#     SRC_NAME=lach-hhg-105
#     OBSERVER=hhgmadison16_9500
#     DATE_OBS=2016-05-20T15:33:27.500
#        OBSID=20361
#      SCANNUM=20912
#          MJD=57528.6493
#          UTC=56096
#     SCANTYPE=track
#     DATAMODE=HIRES
#     TUNEFREQ=1420.0000
# Actual_FREQ1=1420.0000
# Actual_FREQ2=1420.0000
#    LO1Tuning=6870.000
#     RFFILTER=1355_1435
#        OBSBW=-15.6250
#        NCHAN=1024 
#        FOCUS=37.0709
#           RA=22:30:08.67
#          DEC=57:51:38.74
#      RA(hrs)=22.502400
#     DEC(deg)=57.860800
#    AZIM(deg)=317.004
#    ELEV(deg)=50.049
#     IFattens=10.00, 9.00
#      WARNING=None
#    TCAL_XL1=7.9635
#    TCAL_YR1=9.1340
#    TCAL_XL2=7.9635
#    TCAL_YR2=9.1340
#     TRX_XL1=11.7060
#     TRX_YR1=11.7060
#     TRX_XL2=11.7060
#     TRX_YR2=11.7060
#        TAVE=1.0000
#Freq1(MHz)          XL1          YR1  Freq2(MHz)          XL2          YR2 

   1427.81250     375.0249     287.0526   1427.81250     375.0249     287.0526
   1427.79724     374.6993     287.6139   1427.79724     374.6993     287.6139
   1427.78198     375.7651     288.0490   1427.78198     375.7651     288.0490
   1427.76672     376.8158     289.0351   1427.76672     376.8158     289.0351
   1427.75146     376.5338     289.7158   1427.75146     376.5338     289.7158
   1427.73621     378.5684     290.3915   1427.73621     378.5684     290.3915
   1427.72095     379.4303     291.9700   1427.72095     379.4303     291.9700
   1427.70569     380.2799     292.3643   1427.70569     380.2799     292.3643
   1427.69043     380.8287     293.7322   1427.69043     380.8287     293.7322
   1427.67517     381.6912     294.7374   1427.67517     381.6912     294.7374
   1427.65991     383.5784     295.9985   1427.65991     383.5784     295.9985
   1427.64465     384.8609     297.0173   1427.64465     384.8609     297.0173
   1427.62939     386.3773     298.2993   1427.62939     386.3773     298.2993
   1427.61414     387.7401     299.4787   1427.61414     387.7401     299.4787
   1427.59888     388.7238     300.7036   1427.59888     388.7238     300.7036
   1427.58362     389.7758     302.0177   1427.58362     389.7758     302.0177
   1427.56836     391.9466     303.1232   1427.56836     391.9466     303.1232
   1427.55310     392.7534     304.8575   1427.55310     392.7534     304.8575
   1427.53784     394.3357     305.8693   1427.53784     394.3357     305.8693
   1427.52258     396.7847     306.9737   1427.52258     396.7847     306.9737
   1427.50732     397.6646     308.8951   1427.50732     397.6646     308.8951
   1427.49207     399.3080     310.2990   1427.49207     399.3080     310.2990
   1427.47681     401.1193     311.9537   1427.47681     401.1193     311.9537
   1427.46155     403.8364     313.5839   1427.46155     403.8364     313.5839
   1427.44629     403.9531     315.0788   1427.44629     403.9531     315.0788
   1427.43103     406.2908     316.2857   1427.43103     406.2908     316.2857
   1427.41577     408.6318     318.5743   1427.41577     408.6318     318.5743
   1427.40051     410.8893     319.5920   1427.40051     410.8893     319.5920
   1427.38525     412.6106     321.6582   1427.38525     412.6106     321.6582
   1427.37000     414.5727     322.6614   1427.37000     414.5727     322.6614
   1427.35474     416.8879     325.2032   1427.35474     416.8879     325.2032
   1427.33948     419.3174     327.0163   1427.33948     419.3174     327.0163
   1427.32422     420.5643     328.6967   1427.32422     420.5643     328.6967
   1427.30896     422.9224     330.7226   1427.30896     422.9224     330.7226
   1427.29370     425.4617     332.3864   1427.29370     425.4617     332.3864
   1427.27844     427.8330     334.4915   1427.27844     427.8330     334.4915
   1427.26318     430.9027     336.2462   1427.26318     430.9027     336.2462
   1427.24792     432.2630     338.0008   1427.24792     432.2630     338.0008
   1427.23267     434.8099     339.9742   1427.23267     434.8099     339.9742
   1427.21741     436.7977     341.6123   1427.21741     436.7977     341.6123
   1427.20215     440.4321     343.5798   1427.20215     440.4321     343.5798
   1427.18689     441.7007     345.5353   1427.18689     441.7007     345.5353
   1427.17163     444.7395     348.3264   1427.17163     444.7395     348.3264
   1427.15637     447.4612     349.7094   1427.15637     447.4612     349.7094
   1427.14111     450.3025     352.1899   1427.14111     450.3025     352.1899
   1427.12585     453.1522     354.1995   1427.12585     453.1522     354.1995
   1427.11060     454.6417     356.4053   1427.11060     454.6417     356.4053
   1427.09534     457.2451     359.0466   1427.09534     457.2451     359.0466
   1427.08008     460.4887     360.4534   1427.08008     460.4887     360.4534
   1427.06482     463.6398     363.0362   1427.06482     463.6398     363.0362
   1427.04956     466.0800     365.1517   1427.04956     466.0800     365.1517
   1427.03430     468.1339     367.0372   1427.03430     468.1339     367.0372
   1427.01904     472.4521     369.3503   1427.01904     472.4521     369.3503
   1427.00378     474.6000     371.2711   1427.00378     474.6000     371.2711
   1426.98853     477.6257     373.8879   1426.98853     477.6257     373.8879
   1426.97327     480.4766     375.7591   1426.97327     480.4766     375.7591
   1426.95801     483.2363     378.3549   1426.95801     483.2363     378.3549
   1426.94275     487.0286     380.9308   1426.94275     487.0286     380.9308
   1426.92749     488.8125     382.2801   1426.92749     488.8125     382.2801
   1426.91223     492.3398     385.2659   1426.91223     492.3398     385.2659
   1426.89697     494.5341     387.2680   1426.89697     494.5341     387.2680
   1426.88171     498.2613     389.3388   1426.88171     498.2613     389.3388
   1426.86646     502.0199     391.7221   1426.86646     502.0199     391.7221
   1426.85120     503.6261     394.7833   1426.85120     503.6261     394.7833
   1426.83594     506.8452     396.5458   1426.83594     506.8452     396.5458
   1426.82068     509.3606     398.5488   1426.82068     509.3606     398.5488
   1426.80542     513.1767     400.8637   1426.80542     513.1767     400.8637
   1426.79016     515.8175     403.1039   1426.79016     515.8175     403.1039
   1426.77490     519.3491     405.9252   1426.77490     519.3491     405.9252
   1426.75964     521.4733     407.7748   1426.75964     521.4733     407.7748
   1426.74438     524.3447     410.4941   1426.74438     524.3447     410.4941
   1426.72913     528.2322     412.7589   1426.72913     528.2322     412.7589
   1426.71387     531.0026     415.0110   1426.71387     531.0026     415.0110
   1426.69861     534.1285     417.5407   1426.69861     534.1285     417.5407
   1426.68335     537.8900     419.6967   1426.68335     537.8900     419.6967
   1426.66809     539.5266     421.9749   1426.66809     539.5266     421.9749
   1426.65283     543.0052     424.0033   1426.65283     543.0052     424.0033
   1426.63757     545.6072     426.3639   1426.63757     545.6072     426.3639
   1426.62231     550.5931     429.7038   1426.62231     550.5931     429.7038
   1426.60706     553.1182     431.5737   1426.60706     553.1182     431.5737
   1426.59180     556.0496     433.8228   1426.59180     556.0496     433.8228
   1426.57654     557.9149     435.1240   1426.57654     557.9149     435.1240
   1426.56128     561.2428     438.4418   1426.56128     561.2428     438.4418
   1426.54602     565.1462     439.8748   1426.54602     565.1462     439.8748
   1426.53076     567.3638     442.2145   1426.53076     567.3638     442.2145
   1426.51550     570.7327     444.3589   1426.51550     570.7327     444.3589
   1426.50024     573.9457     446.9899   1426.50024     573.9457     446.9899
   1426.48499     576.3233     449.4975   1426.48499     576.3233     449.4975
   1426.46973     579.9465     451.3139   1426.46973     579.9465     451.3139
   1426.45447     582.4594     453.4624   1426.45447     582.4594     453.4624
   1426.43921     585.9543     455.2435   1426.43921     585.9543     455.2435
   1426.42395     588.1171     457.1103   1426.42395     588.1171     457.1103
   1426.40869     592.6181     459.5365   1426.40869     592.6181     459.5365
   1426.39343     595.1132     462.5422   1426.39343     595.1132     462.5422
   1426.37817     597.6280     464.2957   1426.37817     597.6280     464.2957
   1426.36292     600.5277     466.1564   1426.36292     600.5277     466.1564
   1426.34766     603.7823     468.7418   1426.34766     603.7823     468.7418
   1426.33240     606.3519     470.4512   1426.33240     606.3519     470.4512
   1426.31714     609.0779     473.4360   1426.31714     609.0779     473.4360
   1426.30188     612.0984     475.2637   1426.30188     612.0984     475.2637
   1426.28662     614.2711     476.7992   1426.28662     614.2711     476.7992
   1426.27136     617.7305     479.1440   1426.27136     617.7305     479.1440
   1426.25610     619.8005     480.9633   1426.25610     619.8005     480.9633
   1426.24084     622.8846     482.8090   1426.24084     622.8846     482.8090
   1426.22559     623.9915     484.5746   1426.22559     623.9915     484.5746
   1426.21033     628.5892     486.7073   1426.21033     628.5892     486.7073
   1426.19507     631.6553     488.8273   1426.19507     631.6553     488.8273
   1426.17981     632.9633     491.3962   1426.17981     632.9633     491.3962
   1426.16455     636.3120     492.9909   1426.16455     636.3120     492.9909
   1426.14929     638.8912     495.1888   1426.14929     638.8912     495.1888
   1426.13403     641.0773     497.1564   1426.13403     641.0773     497.1564
   1426.11877     644.2316     498.3112   1426.11877     644.2316     498.3112
   1426.10352     646.9431     500.6744   1426.10352     646.9431     500.6744
   1426.08826     649.3292     501.9694   1426.08826     649.3292     501.9694
   1426.07300     651.9042     504.5127   1426.07300     651.9042     504.5127
   1426.05774     654.0471     506.0161   1426.05774     654.0471     506.0161
   1426.04248     656.2089     507.7144   1426.04248     656.2089     507.7144
   1426.02722     658.7076     510.6352   1426.02722     658.7076     510.6352
   1426.01196     660.4434     512.0322   1426.01196     660.4434     512.0322
   1425.99670     663.8663     512.8350   1425.99670     663.8663     512.8350
   1425.98145     666.1885     515.8607   1425.98145     666.1885     515.8607
   1425.96619     667.2229     517.6108   1425.96619     667.2229     517.6108
   1425.95093     670.6508     518.6599   1425.95093     670.6508     518.6599
   1425.93567     672.6954     520.1193   1425.93567     672.6954     520.1193
   1425.92041     675.0140     522.3303   1425.92041     675.0140     522.3303
   1425.90515     677.8437     524.8782   1425.90515     677.8437     524.8782
   1425.88989     679.4899     525.8344   1425.88989     679.4899     525.8344
   1425.87463     681.0396     527.4991   1425.87463     681.0396     527.4991
   1425.85938     684.1856     529.3641   1425.85938     684.1856     529.3641
   1425.84412     684.4461     530.3674   1425.84412     684.4461     530.3674
   1425.82886     687.6409     533.2708   1425.82886     687.6409     533.2708
   1425.81360     689.2454     533.7496   1425.81360     689.2454     533.7496
   1425.79834     690.6445     534.7403   1425.79834     690.6445     534.7403
   1425.78308     692.4645     536.5936   1425.78308     692.4645     536.5936
   1425.76782     695.7979     538.4564   1425.76782     695.7979     538.4564
   1425.75256     697.5375     539.5599   1425.75256     697.5375     539.5599
   1425.73730     698.0369     541.7233   1425.73730     698.0369     541.7233
   1425.72205     700.4498     542.3317   1425.72205     700.4498     542.3317
   1425.70679     702.4763     543.9890   1425.70679     702.4763     543.9890
   1425.69153     703.7510     545.8199   1425.69153     703.7510     545.8199
   1425.67627     706.6998     547.1356   1425.67627     706.6998     547.1356
   1425.66101     707.9500     548.6214   1425.66101     707.9500     548.6214
   1425.64575     709.0582     549.9371   1425.64575     709.0582     549.9371
   1425.63049     711.6617     550.7702   1425.63049     711.6617     550.7702
   1425.61523     712.1143     553.4071   1425.61523     712.1143     553.4071
   1425.59998     714.8252     553.5112   1425.59998     714.8252     553.5112
   1425.58472     714.6218     554.8588   1425.58472     714.6218     554.8588
   1425.56946     716.4223     557.1351   1425.56946     716.4223     557.1351
   1425.55420     717.8545     558.2938   1425.55420     717.8545     558.2938
   1425.53894     719.6475     559.7231   1425.53894     719.6475     559.7231
   1425.52368     721.4140     560.2794   1425.52368     721.4140     560.2794
   1425.50842     723.6614     562.4144   1425.50842     723.6614     562.4144
   1425.49316     723.4359     563.0683   1425.49316     723.4359     563.0683
   1425.47791     724.1605     564.4447   1425.47791     724.1605     564.4447
   1425.46265     726.9685     566.5237   1425.46265     726.9685     566.5237
   1425.44739     728.2263     566.4741   1425.44739     728.2263     566.4741
   1425.43213     729.2708     568.6014   1425.43213     729.2708     568.6014
   1425.41687     733.7709     570.4792   1425.41687     733.7709     570.4792
   1425.40161     732.1479     570.4084   1425.40161     732.1479     570.4084
   1425.38635     732.1384     571.6811   1425.38635     732.1384     571.6811
   1425.37109     734.0681     573.5483   1425.37109     734.0681     573.5483
   1425.35583     734.4313     573.1288   1425.35583     734.4313     573.1288
   1425.34058     734.8505     575.0438   1425.34058     734.8505     575.0438
   1425.32532     736.6303     576.3954   1425.32532     736.6303     576.3954
   1425.31006     737.0781     576.6348   1425.31006     737.0781     576.6348
   1425.29480     738.1314     578.1833   1425.29480     738.1314     578.1833
   1425.27954     738.7634     579.8995   1425.27954     738.7634     579.8995
   1425.26428     739.4910     580.0062   1425.26428     739.4910     580.0062
   1425.24902     740.8370     580.5206   1425.24902     740.8370     580.5206
   1425.23376     741.1008     582.0690   1425.23376     741.1008     582.0690
   1425.21851     743.0551     583.3036   1425.21851     743.0551     583.3036
   1425.20325     744.2663     584.1862   1425.20325     744.2663     584.1862
   1425.18799     743.3234     585.1199   1425.18799     743.3234     585.1199
   1425.17273     745.6367     585.9028   1425.17273     745.6367     585.9028
   1425.15747     746.9838     586.5907   1425.15747     746.9838     586.5907
   1425.14221     747.3006     587.9163   1425.14221     747.3006     587.9163
   1425.12695     746.7386     588.6271   1425.12695     746.7386     588.6271
   1425.11169     748.0062     590.5613   1425.11169     748.0062     590.5613
   1425.09644     749.5547     590.9091   1425.09644     749.5547     590.9091
   1425.08118     748.8018     591.4821   1425.08118     748.8018     591.4821
   1425.06592     750.0648     592.9150   1425.06592     750.0648     592.9150
   1425.05066     749.8281     592.3084   1425.05066     749.8281     592.3084
   1425.03540     752.1782     594.6581   1425.03540     752.1782     594.6581
   1425.02014     751.3813     594.7413   1425.02014     751.3813     594.7413
   1425.00488     751.8109     596.3338   1425.00488     751.8109     596.3338
   1424.98962     752.0770     596.1276   1424.98962     752.0770     596.1276
   1424.97437     752.4370     597.2173   1424.97437     752.4370     597.2173
   1424.95911     753.3373     598.3662   1424.95911     753.3373     598.3662
   1424.94385     754.0751     598.8485   1424.94385     754.0751     598.8485
   1424.92859     752.6998     599.7307   1424.92859     752.6998     599.7307
   1424.91333     753.9463     600.8334   1424.91333     753.9463     600.8334
   1424.89807     753.6634     601.0687   1424.89807     753.6634     601.0687
   1424.88281     754.1345     602.2260   1424.88281     754.1345     602.2260
   1424.86755     755.2835     602.1132   1424.86755     755.2835     602.1132
   1424.85229     755.1884     603.7844   1424.85229     755.1884     603.7844
   1424.83704     755.6779     604.3539   1424.83704     755.6779     604.3539
   1424.82178     755.3925     603.3912   1424.82178     755.3925     603.3912
   1424.80652     755.8908     605.3175   1424.80652     755.8908     605.3175
   1424.79126     755.4702     605.2654   1424.79126     755.4702     605.2654
   1424.77600     756.1374     607.2863   1424.77600     756.1374     607.2863
   1424.76074     756.3937     608.1050   1424.76074     756.3937     608.1050
   1424.74548     755.6909     607.6332   1424.74548     755.6909     607.6332
   1424.73022     755.1067     608.4443   1424.73022     755.1067     608.4443
   1424.71497     757.1541     608.8558   1424.71497     757.1541     608.8558
   1424.69971     757.3445     609.6810   1424.69971     757.3445     609.6810
   1424.68445     757.5896     611.6535   1424.68445     757.5896     611.6535
   1424.66919     756.4562     610.5957   1424.66919     756.4562     610.5957
   1424.65393     756.9949     612.4183   1424.65393     756.9949     612.4183
   1424.63867     757.9116     612.9488   1424.63867     757.9116     612.9488
   1424.62341     758.1517     613.6448   1424.62341     758.1517     613.6448
   1424.60815     758.2325     614.6923   1424.60815     758.2325     614.6923
   1424.59290     757.1248     614.4686   1424.59290     757.1248     614.4686
   1424.57764     757.9365     615.3994   1424.57764     757.9365     615.3994
   1424.56238     757.6485     614.4765   1424.56238     757.6485     614.4765
   1424.54712     757.8622     615.8688   1424.54712     757.8622     615.8688
   1424.53186     757.4422     616.4452   1424.53186     757.4422     616.4452
   1424.51660     757.5205     618.1957   1424.51660     757.5205     618.1957
   1424.50134     756.9136     618.1080   1424.50134     756.9136     618.1080
   1424.48608     756.7723     618.4333   1424.48608     756.7723     618.4333
   1424.47083     755.9985     618.6234   1424.47083     755.9985     618.6234
   1424.45557     756.5960     618.3958   1424.45557     756.5960     618.3958
   1424.44031     756.8347     619.9827   1424.44031     756.8347     619.9827
   1424.42505     757.2243     619.6123   1424.42505     757.2243     619.6123
   1424.40979     757.1350     620.6412   1424.40979     757.1350     620.6412
   1424.39453     756.2642     620.7628   1424.39453     756.2642     620.7628
   1424.37927     756.0680     621.3829   1424.37927     756.0680     621.3829
   1424.36401     756.2601     622.0058   1424.36401     756.2601     622.0058
   1424.34875     756.0535     622.7223   1424.34875     756.0535     622.7223
   1424.33350     756.4866     623.8239   1424.33350     756.4866     623.8239
   1424.31824     755.2979     623.6298   1424.31824     755.2979     623.6298
   1424.30298     755.7090     624.1373   1424.30298     755.7090     624.1373
   1424.28772     755.8366     623.9869   1424.28772     755.8366     623.9869
   1424.27246     756.1779     624.5018   1424.27246     756.1779     624.5018
   1424.25720     754.7537     625.0430   1424.25720     754.7537     625.0430
   1424.24194     755.5173     625.4654   1424.24194     755.5173     625.4654
   1424.22668     754.5181     626.5868   1424.22668     754.5181     626.5868
   1424.21143     754.4825     626.3763   1424.21143     754.4825     626.3763
   1424.19617     754.6809     625.7219   1424.19617     754.6809     625.7219
   1424.18091     754.2047     626.0762   1424.18091     754.2047     626.0762
   1424.16565     754.4803     627.1131   1424.16565     754.4803     627.1131
