#     FILENAME=!Skynet_57528_lach-cc-205_20610_21054.cyb.fits
#     BASENAME=Skynet_57528_lach-cc-205_20610_21054
#     SRC_NAME=lach-cc-205
#     OBSERVER=ccmadison16_9505
#     DATE_OBS=2016-05-20T20:24:52.500
#        OBSID=20610
#      SCANNUM=21054
#          MJD=57528.8516
#          UTC=73581
#     SCANTYPE=track
#     DATAMODE=HIRES
#     TUNEFREQ=1420.0000
# Actual_FREQ1=1420.0000
# Actual_FREQ2=1420.0000
#    LO1Tuning=6870.000
#     RFFILTER=1355_1435
#        OBSBW=-15.6250
#        NCHAN=1024 
#        FOCUS=37.0709
#           RA=06:36:52.44
#          DEC=07:03:17.56
#      RA(hrs)=6.614600
#     DEC(deg)=7.054900
#    AZIM(deg)=190.555
#    ELEV(deg)=58.028
#     IFattens=10.00, 9.00
#      WARNING=None
#    TCAL_XL1=7.9635
#    TCAL_YR1=9.1340
#    TCAL_XL2=7.9635
#    TCAL_YR2=9.1340
#     TRX_XL1=11.7060
#     TRX_YR1=11.7060
#     TRX_XL2=11.7060
#     TRX_YR2=11.7060
#        TAVE=1.0000
#Freq1(MHz)          XL1          YR1  Freq2(MHz)          XL2          YR2 

   1427.81250     369.2454     270.5481   1427.81250     369.2454     270.5481
   1427.79724     369.4907     271.5445   1427.79724     369.4907     271.5445
   1427.78198     370.4567     272.6641   1427.78198     370.4567     272.6641
   1427.76672     370.7098     272.8509   1427.76672     370.7098     272.8509
   1427.75146     371.4414     273.6835   1427.75146     371.4414     273.6835
   1427.73621     372.5078     274.7555   1427.73621     372.5078     274.7555
   1427.72095     373.4370     275.7215   1427.72095     373.4370     275.7215
   1427.70569     374.2007     276.5959   1427.70569     374.2007     276.5959
   1427.69043     375.0181     277.5101   1427.69043     375.0181     277.5101
   1427.67517     376.3951     278.9436   1427.67517     376.3951     278.9436
   1427.65991     377.8036     279.4829   1427.65991     377.8036     279.4829
   1427.64465     378.9070     280.9157   1427.64465     378.9070     280.9157
   1427.62939     379.6901     282.0643   1427.62939     379.6901     282.0643
   1427.61414     381.2732     283.1111   1427.61414     381.2732     283.1111
   1427.59888     382.7471     284.5078   1427.59888     382.7471     284.5078
   1427.58362     383.8799     285.1804   1427.58362     383.8799     285.1804
   1427.56836     385.0228     286.7654   1427.56836     385.0228     286.7654
   1427.55310     386.1011     288.0838   1427.55310     386.1011     288.0838
   1427.53784     387.9236     289.4283   1427.53784     387.9236     289.4283
   1427.52258     388.6406     290.4302   1427.52258     388.6406     290.4302
   1427.50732     390.6288     291.7352   1427.50732     390.6288     291.7352
   1427.49207     392.6277     293.6769   1427.49207     392.6277     293.6769
   1427.47681     394.6894     294.9484   1427.47681     394.6894     294.9484
   1427.46155     396.3253     297.0841   1427.46155     396.3253     297.0841
   1427.44629     397.3757     297.8768   1427.44629     397.3757     297.8768
   1427.43103     399.5183     299.9281   1427.43103     399.5183     299.9281
   1427.41577     400.9925     301.7233   1427.41577     400.9925     301.7233
   1427.40051     402.9950     302.7775   1427.40051     402.9950     302.7775
   1427.38525     405.2277     304.4045   1427.38525     405.2277     304.4045
   1427.37000     407.4890     306.4706   1427.37000     407.4890     306.4706
   1427.35474     409.7434     308.4171   1427.35474     409.7434     308.4171
   1427.33948     410.9762     310.0481   1427.33948     410.9762     310.0481
   1427.32422     413.1517     311.6565   1427.32422     413.1517     311.6565
   1427.30896     416.0286     314.1004   1427.30896     416.0286     314.1004
   1427.29370     417.7721     315.2598   1427.29370     417.7721     315.2598
   1427.27844     419.8790     317.5649   1427.27844     419.8790     317.5649
   1427.26318     422.4398     320.0901   1427.26318     422.4398     320.0901
   1427.24792     424.2448     321.6609   1427.24792     424.2448     321.6609
   1427.23267     426.3514     323.2923   1427.23267     426.3514     323.2923
   1427.21741     429.4886     325.6461   1427.21741     429.4886     325.6461
   1427.20215     431.7051     328.0572   1427.20215     431.7051     328.0572
   1427.18689     433.6197     330.0173   1427.18689     433.6197     330.0173
   1427.17163     435.8562     332.4930   1427.17163     435.8562     332.4930
   1427.15637     438.6285     334.0146   1427.15637     438.6285     334.0146
   1427.14111     441.3571     336.1567   1427.14111     441.3571     336.1567
   1427.12585     444.3160     338.2166   1427.12585     444.3160     338.2166
   1427.11060     446.0869     340.7240   1427.11060     446.0869     340.7240
   1427.09534     449.3463     342.6938   1427.09534     449.3463     342.6938
   1427.08008     451.3069     345.0133   1427.08008     451.3069     345.0133
   1427.06482     454.1505     347.9737   1427.06482     454.1505     347.9737
   1427.04956     456.8438     349.7414   1427.04956     456.8438     349.7414
   1427.03430     459.8646     352.0622   1427.03430     459.8646     352.0622
   1427.01904     462.4810     354.4527   1427.01904     462.4810     354.4527
   1427.00378     465.1342     356.4321   1427.00378     465.1342     356.4321
   1426.98853     467.9805     358.7863   1426.98853     467.9805     358.7863
   1426.97327     470.5773     361.1922   1426.97327     470.5773     361.1922
   1426.95801     473.1926     364.3069   1426.95801     473.1926     364.3069
   1426.94275     477.1999     366.4526   1426.94275     477.1999     366.4526
   1426.92749     478.2178     368.4083   1426.92749     478.2178     368.4083
   1426.91223     481.7136     370.3786   1426.91223     481.7136     370.3786
   1426.89697     486.0268     374.3408   1426.89697     486.0268     374.3408
   1426.88171     487.8131     376.3162   1426.88171     487.8131     376.3162
   1426.86646     490.6802     378.4990   1426.86646     490.6802     378.4990
   1426.85120     493.8794     381.1657   1426.85120     493.8794     381.1657
   1426.83594     496.4401     383.2850   1426.83594     496.4401     383.2850
   1426.82068     499.6197     386.1529   1426.82068     499.6197     386.1529
   1426.80542     502.7197     388.4137   1426.80542     502.7197     388.4137
   1426.79016     505.4437     391.7240   1426.79016     505.4437     391.7240
   1426.77490     508.6389     393.5409   1426.77490     508.6389     393.5409
   1426.75964     511.6912     396.4062   1426.75964     511.6912     396.4062
   1426.74438     514.8954     398.8224   1426.74438     514.8954     398.8224
   1426.72913     516.9478     401.2001   1426.72913     516.9478     401.2001
   1426.71387     521.2161     403.6711   1426.71387     521.2161     403.6711
   1426.69861     523.0717     406.9523   1426.69861     523.0717     406.9523
   1426.68335     525.5402     409.1946   1426.68335     525.5402     409.1946
   1426.66809     529.7415     412.3134   1426.66809     529.7415     412.3134
   1426.65283     532.5914     414.8121   1426.65283     532.5914     414.8121
   1426.63757     534.8797     417.8318   1426.63757     534.8797     417.8318
   1426.62231     538.8010     427.2276   1426.62231     538.8010     427.2276
   1426.60706     540.5408     422.1261   1426.60706     540.5408     422.1261
   1426.59180     544.2177     425.0325   1426.59180     544.2177     425.0325
   1426.57654     547.6315     426.9538   1426.57654     547.6315     426.9538
   1426.56128     551.0167     430.3318   1426.56128     551.0167     430.3318
   1426.54602     553.4535     433.4348   1426.54602     553.4535     433.4348
   1426.53076     556.1197     435.2281   1426.53076     556.1197     435.2281
   1426.51550     558.9045     438.2014   1426.51550     558.9045     438.2014
   1426.50024     561.6238     440.4520   1426.50024     561.6238     440.4520
   1426.48499     565.1124     443.4641   1426.48499     565.1124     443.4641
   1426.46973     568.3345     445.5513   1426.46973     568.3345     445.5513
   1426.45447     570.2712     448.2781   1426.45447     570.2712     448.2781
   1426.43921     573.1575     450.3767   1426.43921     573.1575     450.3767
   1426.42395     577.5582     453.1483   1426.42395     577.5582     453.1483
   1426.40869     579.7985     456.2959   1426.40869     579.7985     456.2959
   1426.39343     582.1694     457.8715   1426.39343     582.1694     457.8715
   1426.37817     585.4470     461.5895   1426.37817     585.4470     461.5895
   1426.36292     587.5339     463.7332   1426.36292     587.5339     463.7332
   1426.34766     591.5959     466.3312   1426.34766     591.5959     466.3312
   1426.33240     593.0500     469.3987   1426.33240     593.0500     469.3987
   1426.31714     596.8691     470.8758   1426.31714     596.8691     470.8758
   1426.30188     599.2695     473.6894   1426.30188     599.2695     473.6894
   1426.28662     602.6129     476.4558   1426.28662     602.6129     476.4558
   1426.27136     605.4152     478.5378   1426.27136     605.4152     478.5378
   1426.25610     608.0984     481.5583   1426.25610     608.0984     481.5583
   1426.24084     609.3640     483.6532   1426.24084     609.3640     483.6532
   1426.22559     612.0458     486.6240   1426.22559     612.0458     486.6240
   1426.21033     615.7442     488.2761   1426.21033     615.7442     488.2761
   1426.19507     618.4517     491.2494   1426.19507     618.4517     491.2494
   1426.17981     620.4284     492.7085   1426.17981     620.4284     492.7085
   1426.16455     623.6458     495.2291   1426.16455     623.6458     495.2291
   1426.14929     626.1287     498.6429   1426.14929     626.1287     498.6429
   1426.13403     629.0746     500.4122   1426.13403     629.0746     500.4122
   1426.11877     631.4625     503.4142   1426.11877     631.4625     503.4142
   1426.10352     633.6035     506.0457   1426.10352     633.6035     506.0457
   1426.08826     636.1353     507.5858   1426.08826     636.1353     507.5858
   1426.07300     638.1206     510.5262   1426.07300     638.1206     510.5262
   1426.05774     641.4124     512.3168   1426.05774     641.4124     512.3168
   1426.04248     643.3558     514.4951   1426.04248     643.3558     514.4951
   1426.02722     646.0626     516.4378   1426.02722     646.0626     516.4378
   1426.01196     648.5183     519.0571   1426.01196     648.5183     519.0571
   1425.99670     650.5870     520.7900   1425.99670     650.5870     520.7900
   1425.98145     653.5528     523.2170   1425.98145     653.5528     523.2170
   1425.96619     655.2605     525.0148   1425.96619     655.2605     525.0148
   1425.95093     657.0572     529.4368   1425.95093     657.0572     529.4368
   1425.93567     660.1913     530.0339   1425.93567     660.1913     530.0339
   1425.92041     660.9407     533.1500   1425.92041     660.9407     533.1500
   1425.90515     663.1336     534.8104   1425.90515     663.1336     534.8104
   1425.88989     665.3634     536.9732   1425.88989     665.3634     536.9732
   1425.87463     667.7116     538.7094   1425.87463     667.7116     538.7094
   1425.85938     669.2379     541.2393   1425.85938     669.2379     541.2393
   1425.84412     672.3149     542.0798   1425.84412     672.3149     542.0798
   1425.82886     674.6948     544.2252   1425.82886     674.6948     544.2252
   1425.81360     675.4995     545.9842   1425.81360     675.4995     545.9842
   1425.79834     678.3925     549.0505   1425.79834     678.3925     549.0505
   1425.78308     679.4927     550.4213   1425.78308     679.4927     550.4213
   1425.76782     682.1858     553.0237   1425.76782     682.1858     553.0237
   1425.75256     683.2624     555.0305   1425.75256     683.2624     555.0305
   1425.73730     684.8224     557.1356   1425.73730     684.8224     557.1356
   1425.72205     688.0319     557.8294   1425.72205     688.0319     557.8294
   1425.70679     688.8472     559.6090   1425.70679     688.8472     559.6090
   1425.69153     691.1118     561.9681   1425.69153     691.1118     561.9681
   1425.67627     691.6905     564.3686   1425.67627     691.6905     564.3686
   1425.66101     693.4578     565.8798   1425.66101     693.4578     565.8798
   1425.64575     694.9036     568.1617   1425.64575     694.9036     568.1617
   1425.63049     696.7092     568.7061   1425.63049     696.7092     568.7061
   1425.61523     698.6108     570.8858   1425.61523     698.6108     570.8858
   1425.59998     700.0714     573.6252   1425.59998     700.0714     573.6252
   1425.58472     701.7173     575.3272   1425.58472     701.7173     575.3272
   1425.56946     702.2800     576.1631   1425.56946     702.2800     576.1631
   1425.55420     704.3843     577.5909   1425.55420     704.3843     577.5909
   1425.53894     707.0837     578.5020   1425.53894     707.0837     578.5020
   1425.52368     707.1302     581.5068   1425.52368     707.1302     581.5068
   1425.50842     709.2561     581.9986   1425.50842     709.2561     581.9986
   1425.49316     709.6003     584.2049   1425.49316     709.6003     584.2049
   1425.47791     711.5912     585.1143   1425.47791     711.5912     585.1143
   1425.46265     712.3044     587.6494   1425.46265     712.3044     587.6494
   1425.44739     714.4609     589.9055   1425.44739     714.4609     589.9055
   1425.43213     715.6900     589.9799   1425.43213     715.6900     589.9799
   1425.41687     716.5613     593.0566   1425.41687     716.5613     593.0566
   1425.40161     718.2292     592.7126   1425.40161     718.2292     592.7126
   1425.38635     719.9617     595.0310   1425.38635     719.9617     595.0310
   1425.37109     718.2537     597.1536   1425.37109     718.2537     597.1536
   1425.35583     721.5384     596.7833   1425.35583     721.5384     596.7833
   1425.34058     721.2779     598.5515   1425.34058     721.2779     598.5515
   1425.32532     722.5167     599.6989   1425.32532     722.5167     599.6989
   1425.31006     724.8438     601.9350   1425.31006     724.8438     601.9350
   1425.29480     723.3267     603.4008   1425.29480     723.3267     603.4008
   1425.27954     725.7288     604.0167   1425.27954     725.7288     604.0167
   1425.26428     727.0423     605.6216   1425.26428     727.0423     605.6216
   1425.24902     727.7683     606.1652   1425.24902     727.7683     606.1652
   1425.23376     728.0792     608.0912   1425.23376     728.0792     608.0912
   1425.21851     728.6224     610.2088   1425.21851     728.6224     610.2088
   1425.20325     730.0327     609.4893   1425.20325     730.0327     609.4893
   1425.18799     730.1509     611.1661   1425.18799     730.1509     611.1661
   1425.17273     730.3674     611.5489   1425.17273     730.3674     611.5489
   1425.15747     731.6251     613.6939   1425.15747     731.6251     613.6939
   1425.14221     732.6578     614.7745   1425.14221     732.6578     614.7745
   1425.12695     734.7161     617.5775   1425.12695     734.7161     617.5775
   1425.11169     733.7702     616.8734   1425.11169     733.7702     616.8734
   1425.09644     733.4552     617.8679   1425.09644     733.4552     617.8679
   1425.08118     734.6464     618.6652   1425.08118     734.6464     618.6652
   1425.06592     735.4949     619.3817   1425.06592     735.4949     619.3817
   1425.05066     735.6191     620.5120   1425.05066     735.6191     620.5120
   1425.03540     735.9500     621.4941   1425.03540     735.9500     621.4941
   1425.02014     739.1172     623.5424   1425.02014     739.1172     623.5424
   1425.00488     737.9100     624.7028   1425.00488     737.9100     624.7028
   1424.98962     738.0886     624.4575   1424.98962     738.0886     624.4575
   1424.97437     738.5367     625.3191   1424.97437     738.5367     625.3191
   1424.95911     737.8721     626.0639   1424.95911     737.8721     626.0639
   1424.94385     739.3904     626.3835   1424.94385     739.3904     626.3835
   1424.92859     738.7798     626.4319   1424.92859     738.7798     626.4319
   1424.91333     739.1652     627.9193   1424.91333     739.1652     627.9193
   1424.89807     739.6523     629.8063   1424.89807     739.6523     629.8063
   1424.88281     740.2465     629.2985   1424.88281     740.2465     629.2985
   1424.86755     741.1525     630.5108   1424.86755     741.1525     630.5108
   1424.85229     740.1849     630.5081   1424.85229     740.1849     630.5081
   1424.83704     740.5070     631.3955   1424.83704     740.5070     631.3955
   1424.82178     741.7232     632.1992   1424.82178     741.7232     632.1992
   1424.80652     742.0609     633.7039   1424.80652     742.0609     633.7039
   1424.79126     741.8877     633.1512   1424.79126     741.8877     633.1512
   1424.77600     742.2407     634.2884   1424.77600     742.2407     634.2884
   1424.76074     741.8896     635.3325   1424.76074     741.8896     635.3325
   1424.74548     742.1591     634.8557   1424.74548     742.1591     634.8557
   1424.73022     742.8527     636.3254   1424.73022     742.8527     636.3254
   1424.71497     742.5977     636.6445   1424.71497     742.5977     636.6445
   1424.69971     742.4050     636.7338   1424.69971     742.4050     636.7338
   1424.68445     741.3129     637.9002   1424.68445     741.3129     637.9002
   1424.66919     742.5530     638.7769   1424.66919     742.5530     638.7769
   1424.65393     742.0417     638.9351   1424.65393     742.0417     638.9351
   1424.63867     742.3186     638.4654   1424.63867     742.3186     638.4654
   1424.62341     743.6886     639.9800   1424.62341     743.6886     639.9800
   1424.60815     742.4387     641.1362   1424.60815     742.4387     641.1362
   1424.59290     742.4061     639.5178   1424.59290     742.4061     639.5178
   1424.57764     741.3759     640.7408   1424.57764     741.3759     640.7408
   1424.56238     741.9711     641.1469   1424.56238     741.9711     641.1469
   1424.54712     741.6485     641.8338   1424.54712     741.6485     641.8338
   1424.53186     741.8638     641.0226   1424.53186     741.8638     641.0226
   1424.51660     741.9029     640.1698   1424.51660     741.9029     640.1698
   1424.50134     741.5977     642.6215   1424.50134     741.5977     642.6215
   1424.48608     742.5516     641.8845   1424.48608     742.5516     641.8845
   1424.47083     740.9916     642.1864   1424.47083     740.9916     642.1864
   1424.45557     742.1165     643.0345   1424.45557     742.1165     643.0345
   1424.44031     740.9391     642.1508   1424.44031     740.9391     642.1508
   1424.42505     739.9098     643.1053   1424.42505     739.9098     643.1053
   1424.40979     739.8615     644.1208   1424.40979     739.8615     644.1208
   1424.39453     740.6732     643.6520   1424.39453     740.6732     643.6520
   1424.37927     740.2427     644.3827   1424.37927     740.2427     644.3827
   1424.36401     740.1825     642.7214   1424.36401     740.1825     642.7214
   1424.34875     740.5500     644.4664   1424.34875     740.5500     644.4664
   1424.33350     740.1863     645.6550   1424.33350     740.1863     645.6550
   1424.31824     739.6022     643.9523   1424.31824     739.6022     643.9523
   1424.30298     739.6376     644.1945   1424.30298     739.6376     644.1945
   1424.28772     739.4703     644.3782   1424.28772     739.4703     644.3782
   1424.27246     739.1877     644.0009   1424.27246     739.1877     644.0009
   1424.25720     738.4729     644.2941   1424.25720     738.4729     644.2941
   1424.24194     738.3812     645.8505   1424.24194     738.3812     645.8505
   1424.22668     738.0121     643.5151   1424.22668     738.0121     643.5151
   1424.21143     738.7885     644.2798   1424.21143     738.7885     644.2798
   1424.19617     737.0392     644.6943   1424.19617     737.0392     644.6943
   1424.18091     737.7446     645.7184   1424.18091     737.7446     645.7184
   1424.16565     737.7917     644.9071   1424.16565     737.7917     644.9071
