#     FILENAME=!Skynet_57528_lachhhg96_20334_20903.cyb.fits
#     BASENAME=Skynet_57528_lachhhg96_20334_20903
#     SRC_NAME=lachhhg96
#     OBSERVER=hhgmadison16_9500
#     DATE_OBS=2016-05-20T15:15:40.500
#        OBSID=20334
#      SCANNUM=20903
#          MJD=57528.6369
#          UTC=55029
#     SCANTYPE=track
#     DATAMODE=HIRES
#     TUNEFREQ=1420.0000
# Actual_FREQ1=1420.0000
# Actual_FREQ2=1420.0000
#    LO1Tuning=6870.000
#     RFFILTER=1355_1435
#        OBSBW=-15.6250
#        NCHAN=1024 
#        FOCUS=37.0709
#           RA=21:39:01.02
#          DEC=52:30:35.85
#      RA(hrs)=21.650300
#     DEC(deg)=52.510000
#    AZIM(deg)=309.226
#    ELEV(deg)=45.157
#     IFattens=10.00, 9.00
#      WARNING=None
#    TCAL_XL1=7.9635
#    TCAL_YR1=9.1340
#    TCAL_XL2=7.9635
#    TCAL_YR2=9.1340
#     TRX_XL1=11.7060
#     TRX_YR1=11.7060
#     TRX_XL2=11.7060
#     TRX_YR2=11.7060
#        TAVE=1.0000
#Freq1(MHz)          XL1          YR1  Freq2(MHz)          XL2          YR2 

   1427.81250     372.0648     289.0247   1427.81250     372.0648     289.0247
   1427.79724     372.8497     289.4337   1427.79724     372.8497     289.4337
   1427.78198     373.8687     290.7398   1427.78198     373.8687     290.7398
   1427.76672     373.9492     291.1642   1427.76672     373.9492     291.1642
   1427.75146     375.3564     292.4875   1427.75146     375.3564     292.4875
   1427.73621     376.7788     292.3264   1427.73621     376.7788     292.3264
   1427.72095     377.0948     293.3647   1427.72095     377.0948     293.3647
   1427.70569     378.4829     294.5225   1427.70569     378.4829     294.5225
   1427.69043     379.1243     295.8709   1427.69043     379.1243     295.8709
   1427.67517     381.0616     296.6603   1427.67517     381.0616     296.6603
   1427.65991     381.9245     297.3634   1427.65991     381.9245     297.3634
   1427.64465     382.5692     298.6411   1427.64465     382.5692     298.6411
   1427.62939     384.4691     300.2978   1427.62939     384.4691     300.2978
   1427.61414     385.1459     301.1833   1427.61414     385.1459     301.1833
   1427.59888     386.6400     302.2261   1427.59888     386.6400     302.2261
   1427.58362     387.4539     303.1841   1427.58362     387.4539     303.1841
   1427.56836     388.8228     304.9098   1427.56836     388.8228     304.9098
   1427.55310     390.6797     306.4271   1427.55310     390.6797     306.4271
   1427.53784     391.9239     307.5290   1427.53784     391.9239     307.5290
   1427.52258     394.2813     308.9055   1427.52258     394.2813     308.9055
   1427.50732     396.3371     310.2118   1427.50732     396.3371     310.2118
   1427.49207     398.1989     311.9662   1427.49207     398.1989     311.9662
   1427.47681     400.1916     313.5104   1427.47681     400.1916     313.5104
   1427.46155     401.9627     315.1506   1427.46155     401.9627     315.1506
   1427.44629     403.3158     315.8834   1427.44629     403.3158     315.8834
   1427.43103     405.0167     317.4164   1427.43103     405.0167     317.4164
   1427.41577     407.8540     319.3049   1427.41577     407.8540     319.3049
   1427.40051     409.3070     320.7449   1427.40051     409.3070     320.7449
   1427.38525     411.4365     322.9769   1427.38525     411.4365     322.9769
   1427.37000     413.1649     324.3309   1427.37000     413.1649     324.3309
   1427.35474     415.3448     325.8749   1427.35474     415.3448     325.8749
   1427.33948     417.8149     327.4765   1427.33948     417.8149     327.4765
   1427.32422     420.3231     329.6362   1427.32422     420.3231     329.6362
   1427.30896     422.3034     331.2897   1427.30896     422.3034     331.2897
   1427.29370     425.2411     333.0974   1427.29370     425.2411     333.0974
   1427.27844     426.6676     334.4817   1427.27844     426.6676     334.4817
   1427.26318     429.2722     336.2827   1427.26318     429.2722     336.2827
   1427.24792     432.2280     338.9645   1427.24792     432.2280     338.9645
   1427.23267     434.4071     340.3538   1427.23267     434.4071     340.3538
   1427.21741     436.7666     342.2246   1427.21741     436.7666     342.2246
   1427.20215     439.6703     344.2749   1427.20215     439.6703     344.2749
   1427.18689     441.5309     346.3986   1427.18689     441.5309     346.3986
   1427.17163     444.4103     348.4531   1427.17163     444.4103     348.4531
   1427.15637     446.2907     350.2404   1427.15637     446.2907     350.2404
   1427.14111     449.6804     352.1858   1427.14111     449.6804     352.1858
   1427.12585     452.6369     354.3609   1427.12585     452.6369     354.3609
   1427.11060     454.8226     356.0432   1427.11060     454.8226     356.0432
   1427.09534     457.8987     358.6073   1427.09534     457.8987     358.6073
   1427.08008     460.4531     361.1328   1427.08008     460.4531     361.1328
   1427.06482     462.5253     362.3607   1427.06482     462.5253     362.3607
   1427.04956     466.4656     364.1730   1427.04956     466.4656     364.1730
   1427.03430     469.7145     366.8531   1427.03430     469.7145     366.8531
   1427.01904     471.9066     369.2867   1427.01904     471.9066     369.2867
   1427.00378     474.8020     371.0268   1427.00378     474.8020     371.0268
   1426.98853     477.9077     372.9894   1426.98853     477.9077     372.9894
   1426.97327     481.4432     374.8054   1426.97327     481.4432     374.8054
   1426.95801     483.4550     377.4203   1426.95801     483.4550     377.4203
   1426.94275     487.0948     379.7179   1426.94275     487.0948     379.7179
   1426.92749     489.5113     381.6413   1426.92749     489.5113     381.6413
   1426.91223     492.1702     384.2343   1426.91223     492.1702     384.2343
   1426.89697     495.1281     386.2476   1426.89697     495.1281     386.2476
   1426.88171     497.9255     389.2014   1426.88171     497.9255     389.2014
   1426.86646     501.9290     390.7819   1426.86646     501.9290     390.7819
   1426.85120     505.3265     393.0289   1426.85120     505.3265     393.0289
   1426.83594     508.1239     395.8367   1426.83594     508.1239     395.8367
   1426.82068     511.8352     397.7238   1426.82068     511.8352     397.7238
   1426.80542     514.1860     399.8374   1426.80542     514.1860     399.8374
   1426.79016     516.8907     401.7242   1426.79016     516.8907     401.7242
   1426.77490     520.4567     403.8197   1426.77490     520.4567     403.8197
   1426.75964     523.3944     405.2633   1426.75964     523.3944     405.2633
   1426.74438     526.4701     409.0296   1426.74438     526.4701     409.0296
   1426.72913     529.8306     411.4384   1426.72913     529.8306     411.4384
   1426.71387     532.7867     412.8108   1426.71387     532.7867     412.8108
   1426.69861     536.3381     415.8145   1426.69861     536.3381     415.8145
   1426.68335     539.5956     417.4595   1426.68335     539.5956     417.4595
   1426.66809     541.1638     419.9405   1426.66809     541.1638     419.9405
   1426.65283     544.9266     422.3846   1426.65283     544.9266     422.3846
   1426.63757     548.1459     424.5845   1426.63757     548.1459     424.5845
   1426.62231     555.3542     427.3711   1426.62231     555.3542     427.3711
   1426.60706     555.3313     429.5319   1426.60706     555.3313     429.5319
   1426.59180     558.0910     431.7138   1426.59180     558.0910     431.7138
   1426.57654     560.7670     433.9252   1426.57654     560.7670     433.9252
   1426.56128     563.8346     436.0403   1426.56128     563.8346     436.0403
   1426.54602     566.9056     437.9951   1426.54602     566.9056     437.9951
   1426.53076     570.5393     440.0896   1426.53076     570.5393     440.0896
   1426.51550     572.7745     442.7728   1426.51550     572.7745     442.7728
   1426.50024     575.7693     444.7983   1426.50024     575.7693     444.7983
   1426.48499     579.6057     446.8525   1426.48499     579.6057     446.8525
   1426.46973     581.8339     449.2957   1426.46973     581.8339     449.2957
   1426.45447     585.4069     451.5880   1426.45447     585.4069     451.5880
   1426.43921     588.7385     453.2648   1426.43921     588.7385     453.2648
   1426.42395     591.0002     455.5097   1426.42395     591.0002     455.5097
   1426.40869     594.0599     457.7592   1426.40869     594.0599     457.7592
   1426.39343     597.7578     459.6078   1426.39343     597.7578     459.6078
   1426.37817     600.5826     461.7413   1426.37817     600.5826     461.7413
   1426.36292     602.8320     463.8087   1426.36292     602.8320     463.8087
   1426.34766     605.5902     466.3564   1426.34766     605.5902     466.3564
   1426.33240     609.1064     468.8519   1426.33240     609.1064     468.8519
   1426.31714     611.8494     470.4879   1426.31714     611.8494     470.4879
   1426.30188     615.2365     472.1608   1426.30188     615.2365     472.1608
   1426.28662     616.6429     474.2452   1426.28662     616.6429     474.2452
   1426.27136     620.9095     476.7364   1426.27136     620.9095     476.7364
   1426.25610     621.7491     479.1019   1426.25610     621.7491     479.1019
   1426.24084     626.7078     481.4478   1426.24084     626.7078     481.4478
   1426.22559     628.1874     482.5237   1426.22559     628.1874     482.5237
   1426.21033     632.2145     484.5891   1426.21033     632.2145     484.5891
   1426.19507     634.5232     485.8275   1426.19507     634.5232     485.8275
   1426.17981     637.2930     488.7695   1426.17981     637.2930     488.7695
   1426.16455     639.0320     490.6626   1426.16455     639.0320     490.6626
   1426.14929     642.5330     492.9936   1426.14929     642.5330     492.9936
   1426.13403     645.2638     494.1624   1426.13403     645.2638     494.1624
   1426.11877     648.0576     496.6595   1426.11877     648.0576     496.6595
   1426.10352     649.4636     498.3212   1426.10352     649.4636     498.3212
   1426.08826     652.6432     501.0724   1426.08826     652.6432     501.0724
   1426.07300     655.5481     502.3244   1426.07300     655.5481     502.3244
   1426.05774     657.2253     504.3159   1426.05774     657.2253     504.3159
   1426.04248     660.6833     506.6417   1426.04248     660.6833     506.6417
   1426.02722     662.7629     507.7653   1426.02722     662.7629     507.7653
   1426.01196     665.0515     509.9943   1426.01196     665.0515     509.9943
   1425.99670     666.8764     511.1236   1425.99670     666.8764     511.1236
   1425.98145     670.1288     513.6451   1425.98145     670.1288     513.6451
   1425.96619     671.6343     514.6526   1425.96619     671.6343     514.6526
   1425.95093     674.9827     516.5868   1425.95093     674.9827     516.5868
   1425.93567     677.1443     518.6974   1425.93567     677.1443     518.6974
   1425.92041     678.6765     520.6607   1425.92041     678.6765     520.6607
   1425.90515     680.8592     521.8983   1425.90515     680.8592     521.8983
   1425.88989     683.1731     523.6282   1425.88989     683.1731     523.6282
   1425.87463     685.5857     524.7499   1425.87463     685.5857     524.7499
   1425.85938     686.8530     526.0863   1425.85938     686.8530     526.0863
   1425.84412     689.1894     528.8109   1425.84412     689.1894     528.8109
   1425.82886     691.6104     530.2635   1425.82886     691.6104     530.2635
   1425.81360     693.5267     532.6019   1425.81360     693.5267     532.6019
   1425.79834     694.2656     533.7489   1425.79834     694.2656     533.7489
   1425.78308     697.7965     534.9816   1425.78308     697.7965     534.9816
   1425.76782     698.5716     536.9213   1425.76782     698.5716     536.9213
   1425.75256     700.6934     538.8198   1425.75256     700.6934     538.8198
   1425.73730     702.9442     540.2906   1425.73730     702.9442     540.2906
   1425.72205     704.6308     541.4180   1425.72205     704.6308     541.4180
   1425.70679     706.1066     542.6143   1425.70679     706.1066     542.6143
   1425.69153     707.7850     544.1993   1425.69153     707.7850     544.1993
   1425.67627     709.4681     546.5441   1425.67627     709.4681     546.5441
   1425.66101     711.8812     546.8205   1425.66101     711.8812     546.8205
   1425.64575     712.8407     548.5840   1425.64575     712.8407     548.5840
   1425.63049     714.5023     550.1368   1425.63049     714.5023     550.1368
   1425.61523     714.9796     550.4338   1425.61523     714.9796     550.4338
   1425.59998     716.9535     553.3723   1425.59998     716.9535     553.3723
   1425.58472     718.8477     554.5390   1425.58472     718.8477     554.5390
   1425.56946     720.1708     555.9902   1425.56946     720.1708     555.9902
   1425.55420     722.2666     556.8850   1425.55420     722.2666     556.8850
   1425.53894     723.6160     558.9002   1425.53894     723.6160     558.9002
   1425.52368     724.7359     559.9379   1425.52368     724.7359     559.9379
   1425.50842     725.0657     560.4895   1425.50842     725.0657     560.4895
   1425.49316     726.9167     562.7771   1425.49316     726.9167     562.7771
   1425.47791     728.6523     563.3011   1425.47791     728.6523     563.3011
   1425.46265     728.9294     564.2279   1425.46265     728.9294     564.2279
   1425.44739     729.9517     566.4721   1425.44739     729.9517     566.4721
   1425.43213     732.0623     567.9880   1425.43213     732.0623     567.9880
   1425.41687     733.2568     569.3820   1425.41687     733.2568     569.3820
   1425.40161     734.7305     568.4105   1425.40161     734.7305     568.4105
   1425.38635     733.9907     571.9788   1425.38635     733.9907     571.9788
   1425.37109     736.1153     572.9095   1425.37109     736.1153     572.9095
   1425.35583     737.5748     573.8480   1425.35583     737.5748     573.8480
   1425.34058     738.4664     574.4130   1425.34058     738.4664     574.4130
   1425.32532     738.2576     575.0293   1425.32532     738.2576     575.0293
   1425.31006     739.0703     576.7412   1425.31006     739.0703     576.7412
   1425.29480     741.3427     578.6913   1425.29480     741.3427     578.6913
   1425.27954     742.9926     579.0413   1425.27954     742.9926     579.0413
   1425.26428     743.3535     580.9281   1425.26428     743.3535     580.9281
   1425.24902     743.3209     582.6058   1425.24902     743.3209     582.6058
   1425.23376     744.0690     582.7339   1425.23376     744.0690     582.7339
   1425.21851     744.4749     583.5970   1425.21851     744.4749     583.5970
   1425.20325     745.6998     584.3121   1425.20325     745.6998     584.3121
   1425.18799     746.2677     585.5769   1425.18799     746.2677     585.5769
   1425.17273     747.0679     586.1920   1425.17273     747.0679     586.1920
   1425.15747     748.9986     587.5452   1425.15747     748.9986     587.5452
   1425.14221     747.7468     589.1679   1425.14221     747.7468     589.1679
   1425.12695     749.4260     589.3176   1425.12695     749.4260     589.3176
   1425.11169     749.8458     590.8766   1425.11169     749.8458     590.8766
   1425.09644     750.8345     591.9519   1425.09644     750.8345     591.9519
   1425.08118     750.4377     592.7084   1425.08118     750.4377     592.7084
   1425.06592     750.5619     594.1377   1425.06592     750.5619     594.1377
   1425.05066     752.5237     595.3376   1425.05066     752.5237     595.3376
   1425.03540     752.0085     595.8920   1425.03540     752.0085     595.8920
   1425.02014     753.5497     596.3561   1425.02014     753.5497     596.3561
   1425.00488     753.4240     597.8345   1425.00488     753.4240     597.8345
   1424.98962     754.1938     598.4365   1424.98962     754.1938     598.4365
   1424.97437     752.7656     598.7700   1424.97437     752.7656     598.7700
   1424.95911     753.7218     600.8623   1424.95911     753.7218     600.8623
   1424.94385     754.1318     601.1310   1424.94385     754.1318     601.1310
   1424.92859     754.8433     602.0950   1424.92859     754.8433     602.0950
   1424.91333     754.8914     603.0690   1424.91333     754.8914     603.0690
   1424.89807     755.0425     604.1530   1424.89807     755.0425     604.1530
   1424.88281     755.3510     603.8159   1424.88281     755.3510     603.8159
   1424.86755     753.6389     605.6874   1424.86755     753.6389     605.6874
   1424.85229     755.0389     606.1775   1424.85229     755.0389     606.1775
   1424.83704     756.1506     606.8246   1424.83704     756.1506     606.8246
   1424.82178     756.9600     608.1992   1424.82178     756.9600     608.1992
   1424.80652     755.1882     608.3895   1424.80652     755.1882     608.3895
   1424.79126     755.5148     608.9478   1424.79126     755.5148     608.9478
   1424.77600     756.3600     609.7427   1424.77600     756.3600     609.7427
   1424.76074     755.8910     611.1777   1424.76074     755.8910     611.1777
   1424.74548     757.5888     611.9459   1424.74548     757.5888     611.9459
   1424.73022     757.6732     613.3141   1424.73022     757.6732     613.3141
   1424.71497     756.5638     613.1660   1424.71497     756.5638     613.1660
   1424.69971     755.2969     613.1392   1424.69971     755.2969     613.1392
   1424.68445     756.8448     614.6013   1424.68445     756.8448     614.6013
   1424.66919     755.9398     615.7138   1424.66919     755.9398     615.7138
   1424.65393     757.0002     615.6486   1424.65393     757.0002     615.6486
   1424.63867     757.5612     617.0883   1424.63867     757.5612     617.0883
   1424.62341     757.3078     617.7071   1424.62341     757.3078     617.7071
   1424.60815     756.3846     617.3659   1424.60815     756.3846     617.3659
   1424.59290     755.9543     618.1501   1424.59290     755.9543     618.1501
   1424.57764     755.3538     618.8747   1424.57764     755.3538     618.8747
   1424.56238     756.6071     620.7354   1424.56238     756.6071     620.7354
   1424.54712     756.1346     620.8499   1424.54712     756.1346     620.8499
   1424.53186     756.1260     621.3479   1424.53186     756.1260     621.3479
   1424.51660     756.9466     622.6723   1424.51660     756.9466     622.6723
   1424.50134     754.7205     622.5350   1424.50134     754.7205     622.5350
   1424.48608     755.8282     624.0114   1424.48608     755.8282     624.0114
   1424.47083     755.4752     624.4521   1424.47083     755.4752     624.4521
   1424.45557     755.8798     624.2269   1424.45557     755.8798     624.2269
   1424.44031     754.8838     625.7015   1424.44031     754.8838     625.7015
   1424.42505     754.9663     627.1093   1424.42505     754.9663     627.1093
   1424.40979     755.6085     626.8951   1424.40979     755.6085     626.8951
   1424.39453     755.0232     627.4281   1424.39453     755.0232     627.4281
   1424.37927     754.4712     627.4350   1424.37927     754.4712     627.4350
   1424.36401     753.6678     628.6200   1424.36401     753.6678     628.6200
   1424.34875     754.2715     629.2498   1424.34875     754.2715     629.2498
   1424.33350     754.2546     629.1680   1424.33350     754.2546     629.1680
   1424.31824     753.9706     630.0541   1424.31824     753.9706     630.0541
   1424.30298     752.8784     630.2610   1424.30298     752.8784     630.2610
   1424.28772     752.9191     631.0201   1424.28772     752.9191     631.0201
   1424.27246     752.6474     632.2579   1424.27246     752.6474     632.2579
   1424.25720     751.7556     632.2493   1424.25720     751.7556     632.2493
   1424.24194     753.2468     632.8519   1424.24194     753.2468     632.8519
   1424.22668     751.6747     633.1628   1424.22668     751.6747     633.1628
   1424.21143     752.3232     633.6599   1424.21143     752.3232     633.6599
   1424.19617     751.5247     633.2786   1424.19617     751.5247     633.2786
   1424.18091     752.1100     634.3782   1424.18091     752.1100     634.3782
   1424.16565     750.6472     635.8225   1424.16565     750.6472     635.8225
