#     FILENAME=!Skynet_57528_lach-hhg-153_20503_20977.cyb.fits
#     BASENAME=Skynet_57528_lach-hhg-153_20503_20977
#     SRC_NAME=lach-hhg-153
#     OBSERVER=hhgmadison16_9500
#     DATE_OBS=2016-05-20T17:43:34.750
#        OBSID=20503
#      SCANNUM=20977
#          MJD=57528.7396
#          UTC=63904
#     SCANTYPE=track
#     DATAMODE=HIRES
#     TUNEFREQ=1420.0000
# Actual_FREQ1=1420.0000
# Actual_FREQ2=1420.0000
#    LO1Tuning=6870.000
#     RFFILTER=1355_1435
#        OBSBW=-15.6250
#        NCHAN=1024 
#        FOCUS=37.0709
#           RA=04:18:30.14
#          DEC=50:22:28.05
#      RA(hrs)=4.308400
#     DEC(deg)=50.374500
#    AZIM(deg)=359.745
#    ELEV(deg)=77.952
#     IFattens=10.00, 9.00
#      WARNING=None
#    TCAL_XL1=7.9635
#    TCAL_YR1=9.1340
#    TCAL_XL2=7.9635
#    TCAL_YR2=9.1340
#     TRX_XL1=11.7060
#     TRX_YR1=11.7060
#     TRX_XL2=11.7060
#     TRX_YR2=11.7060
#        TAVE=1.0000
#Freq1(MHz)          XL1          YR1  Freq2(MHz)          XL2          YR2 

   1427.81250     378.9418     335.4409   1427.81250     378.9418     335.4409
   1427.79724     379.7754     336.7291   1427.79724     379.7754     336.7291
   1427.78198     380.7567     338.3615   1427.78198     380.7567     338.3615
   1427.76672     381.3562     339.8355   1427.76672     381.3562     339.8355
   1427.75146     382.5602     341.1555   1427.75146     382.5602     341.1555
   1427.73621     382.9138     342.9827   1427.73621     382.9138     342.9827
   1427.72095     384.2923     344.4831   1427.72095     384.2923     344.4831
   1427.70569     385.1240     346.4593   1427.70569     385.1240     346.4593
   1427.69043     385.8077     348.2947   1427.69043     385.8077     348.2947
   1427.67517     386.9734     349.3972   1427.67517     386.9734     349.3972
   1427.65991     388.2854     351.3494   1427.65991     388.2854     351.3494
   1427.64465     388.9130     353.2605   1427.64465     388.9130     353.2605
   1427.62939     390.6859     355.7822   1427.62939     390.6859     355.7822
   1427.61414     391.8051     357.1439   1427.61414     391.8051     357.1439
   1427.59888     393.2062     358.7987   1427.59888     393.2062     358.7987
   1427.58362     394.6261     360.8631   1427.58362     394.6261     360.8631
   1427.56836     396.3596     362.5421   1427.56836     396.3596     362.5421
   1427.55310     397.7463     364.7385   1427.55310     397.7463     364.7385
   1427.53784     399.1801     367.3326   1427.53784     399.1801     367.3326
   1427.52258     400.8874     369.6704   1427.52258     400.8874     369.6704
   1427.50732     402.6306     371.4084   1427.50732     402.6306     371.4084
   1427.49207     404.0222     373.3144   1427.49207     404.0222     373.3144
   1427.47681     405.6032     375.4913   1427.47681     405.6032     375.4913
   1427.46155     407.8313     377.7668   1427.46155     407.8313     377.7668
   1427.44629     410.0701     379.6436   1427.44629     410.0701     379.6436
   1427.43103     411.8063     382.2516   1427.43103     411.8063     382.2516
   1427.41577     413.7269     384.6961   1427.41577     413.7269     384.6961
   1427.40051     415.4326     387.1723   1427.40051     415.4326     387.1723
   1427.38525     417.1146     389.9923   1427.38525     417.1146     389.9923
   1427.37000     419.2246     391.0538   1427.37000     419.2246     391.0538
   1427.35474     421.3960     394.4116   1427.35474     421.3960     394.4116
   1427.33948     423.4903     396.3619   1427.33948     423.4903     396.3619
   1427.32422     426.3178     398.7260   1427.32422     426.3178     398.7260
   1427.30896     428.0063     400.7785   1427.30896     428.0063     400.7785
   1427.29370     430.4872     403.8858   1427.29370     430.4872     403.8858
   1427.27844     432.3313     405.3888   1427.27844     432.3313     405.3888
   1427.26318     434.6085     408.7047   1427.26318     434.6085     408.7047
   1427.24792     437.2457     410.8968   1427.24792     437.2457     410.8968
   1427.23267     440.4268     413.6515   1427.23267     440.4268     413.6515
   1427.21741     442.1962     415.5607   1427.21741     442.1962     415.5607
   1427.20215     444.5657     418.4665   1427.20215     444.5657     418.4665
   1427.18689     447.2775     420.6750   1427.18689     447.2775     420.6750
   1427.17163     449.9404     423.4034   1427.17163     449.9404     423.4034
   1427.15637     452.2355     425.7917   1427.15637     452.2355     425.7917
   1427.14111     454.5325     427.9593   1427.14111     454.5325     427.9593
   1427.12585     457.8557     431.0084   1427.12585     457.8557     431.0084
   1427.11060     460.1045     433.2778   1427.11060     460.1045     433.2778
   1427.09534     462.9944     435.7677   1427.09534     462.9944     435.7677
   1427.08008     465.8911     437.9479   1427.08008     465.8911     437.9479
   1427.06482     468.9308     439.9059   1427.06482     468.9308     439.9059
   1427.04956     470.5832     442.1299   1427.04956     470.5832     442.1299
   1427.03430     473.3919     446.4708   1427.03430     473.3919     446.4708
   1427.01904     476.5686     448.3084   1427.01904     476.5686     448.3084
   1427.00378     479.5587     450.9068   1427.00378     479.5587     450.9068
   1426.98853     482.4092     453.0088   1426.98853     482.4092     453.0088
   1426.97327     485.4801     455.9691   1426.97327     485.4801     455.9691
   1426.95801     487.7341     458.0410   1426.95801     487.7341     458.0410
   1426.94275     491.2603     460.0800   1426.94275     491.2603     460.0800
   1426.92749     494.2042     462.8749   1426.92749     494.2042     462.8749
   1426.91223     495.9135     465.0111   1426.91223     495.9135     465.0111
   1426.89697     499.2380     467.5793   1426.89697     499.2380     467.5793
   1426.88171     503.4676     470.2527   1426.88171     503.4676     470.2527
   1426.86646     506.1027     472.5233   1426.86646     506.1027     472.5233
   1426.85120     508.4134     475.7057   1426.85120     508.4134     475.7057
   1426.83594     512.2187     476.9303   1426.83594     512.2187     476.9303
   1426.82068     515.1895     479.4063   1426.82068     515.1895     479.4063
   1426.80542     517.9112     481.8958   1426.80542     517.9112     481.8958
   1426.79016     521.0880     484.4858   1426.79016     521.0880     484.4858
   1426.77490     524.7609     487.7593   1426.77490     524.7609     487.7593
   1426.75964     527.2511     489.5846   1426.75964     527.2511     489.5846
   1426.74438     530.9544     491.6156   1426.74438     530.9544     491.6156
   1426.72913     533.7990     494.3904   1426.72913     533.7990     494.3904
   1426.71387     536.0735     496.8168   1426.71387     536.0735     496.8168
   1426.69861     539.8121     498.9665   1426.69861     539.8121     498.9665
   1426.68335     543.6726     501.2254   1426.68335     543.6726     501.2254
   1426.66809     545.9451     503.4033   1426.66809     545.9451     503.4033
   1426.65283     548.9476     504.4520   1426.65283     548.9476     504.4520
   1426.63757     552.0165     507.0485   1426.63757     552.0165     507.0485
   1426.62231     557.9033     512.5889   1426.62231     557.9033     512.5889
   1426.60706     557.6115     512.0190   1426.60706     557.6115     512.0190
   1426.59180     561.5466     514.1633   1426.59180     561.5466     514.1633
   1426.57654     565.1617     515.0563   1426.57654     565.1617     515.0563
   1426.56128     568.7003     517.6698   1426.56128     568.7003     517.6698
   1426.54602     570.4810     519.8763   1426.54602     570.4810     519.8763
   1426.53076     574.5469     521.6359   1426.53076     574.5469     521.6359
   1426.51550     576.5101     523.1821   1426.51550     576.5101     523.1821
   1426.50024     580.9861     524.9535   1426.50024     580.9861     524.9535
   1426.48499     583.9098     526.8670   1426.48499     583.9098     526.8670
   1426.46973     586.8734     527.8386   1426.46973     586.8734     527.8386
   1426.45447     589.7557     531.5199   1426.45447     589.7557     531.5199
   1426.43921     592.6937     532.4750   1426.43921     592.6937     532.4750
   1426.42395     595.2542     534.9730   1426.42395     595.2542     534.9730
   1426.40869     598.1666     536.7346   1426.40869     598.1666     536.7346
   1426.39343     601.4244     537.6653   1426.39343     601.4244     537.6653
   1426.37817     604.4507     540.0480   1426.37817     604.4507     540.0480
   1426.36292     608.6750     542.2850   1426.36292     608.6750     542.2850
   1426.34766     610.4958     544.7656   1426.34766     610.4958     544.7656
   1426.33240     613.6995     545.7139   1426.33240     613.6995     545.7139
   1426.31714     616.6210     547.0012   1426.31714     616.6210     547.0012
   1426.30188     620.8890     549.1812   1426.30188     620.8890     549.1812
   1426.28662     621.5807     550.4429   1426.28662     621.5807     550.4429
   1426.27136     625.3849     552.4117   1426.27136     625.3849     552.4117
   1426.25610     627.7975     553.2407   1426.25610     627.7975     553.2407
   1426.24084     630.8782     555.8855   1426.24084     630.8782     555.8855
   1426.22559     635.0370     557.1810   1426.22559     635.0370     557.1810
   1426.21033     637.4243     559.1090   1426.21033     637.4243     559.1090
   1426.19507     640.6262     559.9858   1426.19507     640.6262     559.9858
   1426.17981     642.1214     561.5364   1426.17981     642.1214     561.5364
   1426.16455     646.0355     563.0338   1426.16455     646.0355     563.0338
   1426.14929     647.8989     564.8804   1426.14929     647.8989     564.8804
   1426.13403     650.6859     566.1352   1426.13403     650.6859     566.1352
   1426.11877     654.1343     567.6985   1426.11877     654.1343     567.6985
   1426.10352     655.8081     568.8594   1426.10352     655.8081     568.8594
   1426.08826     659.2432     569.7508   1426.08826     659.2432     569.7508
   1426.07300     662.0403     572.3478   1426.07300     662.0403     572.3478
   1426.05774     664.5308     571.8593   1426.05774     664.5308     571.8593
   1426.04248     667.4205     573.9897   1426.04248     667.4205     573.9897
   1426.02722     669.1705     575.1303   1426.02722     669.1705     575.1303
   1426.01196     673.3256     576.4418   1426.01196     673.3256     576.4418
   1425.99670     674.4869     577.6873   1425.99670     674.4869     577.6873
   1425.98145     676.5649     578.9637   1425.98145     676.5649     578.9637
   1425.96619     680.1725     580.3864   1425.96619     680.1725     580.3864
   1425.95093     682.3430     581.4727   1425.95093     682.3430     581.4727
   1425.93567     685.3397     582.0621   1425.93567     685.3397     582.0621
   1425.92041     686.4653     583.7104   1425.92041     686.4653     583.7104
   1425.90515     689.2481     585.1700   1425.90515     689.2481     585.1700
   1425.88989     691.1255     585.7448   1425.88989     691.1255     585.7448
   1425.87463     693.2185     586.6505   1425.87463     693.2185     586.6505
   1425.85938     696.9243     587.3382   1425.85938     696.9243     587.3382
   1425.84412     698.2081     589.2311   1425.84412     698.2081     589.2311
   1425.82886     699.7840     589.3998   1425.82886     699.7840     589.3998
   1425.81360     702.1378     590.9653   1425.81360     702.1378     590.9653
   1425.79834     704.3418     593.0121   1425.79834     704.3418     593.0121
   1425.78308     705.9644     591.7531   1425.78308     705.9644     591.7531
   1425.76782     708.7357     593.2305   1425.76782     708.7357     593.2305
   1425.75256     710.4832     594.4727   1425.75256     710.4832     594.4727
   1425.73730     713.0711     595.0948   1425.73730     713.0711     595.0948
   1425.72205     715.0925     596.5776   1425.72205     715.0925     596.5776
   1425.70679     716.5001     596.4576   1425.70679     716.5001     596.4576
   1425.69153     718.7512     597.1785   1425.69153     718.7512     597.1785
   1425.67627     721.3674     599.1039   1425.67627     721.3674     599.1039
   1425.66101     722.5684     598.5602   1425.66101     722.5684     598.5602
   1425.64575     722.5499     600.1181   1425.64575     722.5499     600.1181
   1425.63049     724.7108     600.6359   1425.63049     724.7108     600.6359
   1425.61523     726.8391     601.0764   1425.61523     726.8391     601.0764
   1425.59998     729.3782     601.5188   1425.59998     729.3782     601.5188
   1425.58472     730.4665     601.8215   1425.58472     730.4665     601.8215
   1425.56946     733.7070     603.2300   1425.56946     733.7070     603.2300
   1425.55420     733.2555     603.1790   1425.55420     733.2555     603.1790
   1425.53894     735.8767     605.2653   1425.53894     735.8767     605.2653
   1425.52368     737.2659     604.9216   1425.52368     737.2659     604.9216
   1425.50842     738.5573     606.1713   1425.50842     738.5573     606.1713
   1425.49316     740.3463     606.5059   1425.49316     740.3463     606.5059
   1425.47791     741.7397     605.9624   1425.47791     741.7397     605.9624
   1425.46265     742.1658     607.4886   1425.46265     742.1658     607.4886
   1425.44739     744.0042     607.5053   1425.44739     744.0042     607.5053
   1425.43213     745.5125     608.9277   1425.43213     745.5125     608.9277
   1425.41687     747.8351     608.4125   1425.41687     747.8351     608.4125
   1425.40161     748.7578     608.8466   1425.40161     748.7578     608.8466
   1425.38635     750.4922     609.6237   1425.38635     750.4922     609.6237
   1425.37109     751.1879     609.5464   1425.37109     751.1879     609.5464
   1425.35583     750.8437     610.3004   1425.35583     750.8437     610.3004
   1425.34058     753.5726     610.7687   1425.34058     753.5726     610.7687
   1425.32532     754.4648     610.8196   1425.32532     754.4648     610.8196
   1425.31006     754.6024     610.7042   1425.31006     754.6024     610.7042
   1425.29480     757.5408     610.2075   1425.29480     757.5408     610.2075
   1425.27954     757.2114     612.0150   1425.27954     757.2114     612.0150
   1425.26428     757.4436     611.6796   1425.26428     757.4436     611.6796
   1425.24902     760.2625     612.1526   1425.24902     760.2625     612.1526
   1425.23376     760.5562     612.3464   1425.23376     760.5562     612.3464
   1425.21851     761.8506     612.5253   1425.21851     761.8506     612.5253
   1425.20325     762.0496     612.6387   1425.20325     762.0496     612.6387
   1425.18799     762.8528     612.5685   1425.18799     762.8528     612.5685
   1425.17273     763.7572     612.6459   1425.17273     763.7572     612.6459
   1425.15747     764.7302     612.9566   1425.15747     764.7302     612.9566
   1425.14221     765.4419     613.3727   1425.14221     765.4419     613.3727
   1425.12695     766.0646     614.5987   1425.12695     766.0646     614.5987
   1425.11169     766.3309     613.7529   1425.11169     766.3309     613.7529
   1425.09644     767.1078     614.5608   1425.09644     767.1078     614.5608
   1425.08118     767.8615     614.0308   1425.08118     767.8615     614.0308
   1425.06592     768.6193     614.4531   1425.06592     768.6193     614.4531
   1425.05066     768.6873     614.9685   1425.05066     768.6873     614.9685
   1425.03540     770.2625     615.5350   1425.03540     770.2625     615.5350
   1425.02014     769.7133     614.3598   1425.02014     769.7133     614.3598
   1425.00488     769.2299     614.8961   1425.00488     769.2299     614.8961
   1424.98962     770.9669     614.5817   1424.98962     770.9669     614.5817
   1424.97437     772.1041     615.1282   1424.97437     772.1041     615.1282
   1424.95911     771.5486     615.4645   1424.95911     771.5486     615.4645
   1424.94385     771.1667     614.3348   1424.94385     771.1667     614.3348
   1424.92859     772.7964     614.7939   1424.92859     772.7964     614.7939
   1424.91333     772.5198     613.8976   1424.91333     772.5198     613.8976
   1424.89807     774.2705     614.2175   1424.89807     774.2705     614.2175
   1424.88281     772.4688     613.5175   1424.88281     772.4688     613.5175
   1424.86755     773.1495     615.1547   1424.86755     773.1495     615.1547
   1424.85229     774.2510     613.1608   1424.85229     774.2510     613.1608
   1424.83704     772.5918     614.5335   1424.83704     772.5918     614.5335
   1424.82178     773.9778     614.8629   1424.82178     773.9778     614.8629
   1424.80652     774.4269     614.4600   1424.80652     774.4269     614.4600
   1424.79126     774.9147     614.1342   1424.79126     774.9147     614.1342
   1424.77600     773.2791     613.4577   1424.77600     773.2791     613.4577
   1424.76074     775.0464     615.1015   1424.76074     775.0464     615.1015
   1424.74548     775.8077     613.3717   1424.74548     775.8077     613.3717
   1424.73022     775.8585     614.0152   1424.73022     775.8585     614.0152
   1424.71497     774.2757     613.4121   1424.71497     774.2757     613.4121
   1424.69971     775.5488     614.1768   1424.69971     775.5488     614.1768
   1424.68445     776.0064     612.9779   1424.68445     776.0064     612.9779
   1424.66919     774.8192     612.7946   1424.66919     774.8192     612.7946
   1424.65393     774.4023     613.1300   1424.65393     774.4023     613.1300
   1424.63867     775.4903     613.2371   1424.63867     775.4903     613.2371
   1424.62341     774.8024     612.6985   1424.62341     774.8024     612.6985
   1424.60815     774.9608     611.6540   1424.60815     774.9608     611.6540
   1424.59290     774.7751     611.3981   1424.59290     774.7751     611.3981
   1424.57764     774.4181     612.4594   1424.57764     774.4181     612.4594
   1424.56238     773.6389     612.5463   1424.56238     773.6389     612.5463
   1424.54712     775.2184     611.6309   1424.54712     775.2184     611.6309
   1424.53186     773.0268     611.9272   1424.53186     773.0268     611.9272
   1424.51660     775.0526     611.6332   1424.51660     775.0526     611.6332
   1424.50134     774.2420     611.9661   1424.50134     774.2420     611.9661
   1424.48608     772.8974     611.4590   1424.48608     772.8974     611.4590
   1424.47083     772.5209     611.4319   1424.47083     772.5209     611.4319
   1424.45557     773.0673     610.1290   1424.45557     773.0673     610.1290
   1424.44031     772.5596     609.4219   1424.44031     772.5596     609.4219
   1424.42505     773.6727     610.5715   1424.42505     773.6727     610.5715
   1424.40979     771.9409     608.5779   1424.40979     771.9409     608.5779
   1424.39453     771.9781     609.2032   1424.39453     771.9781     609.2032
   1424.37927     771.4821     610.4192   1424.37927     771.4821     610.4192
   1424.36401     771.6385     608.4683   1424.36401     771.6385     608.4683
   1424.34875     771.3015     608.3261   1424.34875     771.3015     608.3261
   1424.33350     770.0359     607.8707   1424.33350     770.0359     607.8707
   1424.31824     770.0965     608.1848   1424.31824     770.0965     608.1848
   1424.30298     769.1082     608.3913   1424.30298     769.1082     608.3913
   1424.28772     770.8648     607.3028   1424.28772     770.8648     607.3028
   1424.27246     768.5997     607.1846   1424.27246     768.5997     607.1846
   1424.25720     769.2706     605.5250   1424.25720     769.2706     605.5250
   1424.24194     768.7297     606.8001   1424.24194     768.7297     606.8001
   1424.22668     769.2424     606.5672   1424.22668     769.2424     606.5672
   1424.21143     767.3224     606.5800   1424.21143     767.3224     606.5800
   1424.19617     768.1113     606.3742   1424.19617     768.1113     606.3742
   1424.18091     766.0432     604.6384   1424.18091     766.0432     604.6384
   1424.16565     766.1590     604.2392   1424.16565     766.1590     604.2392
