#     FILENAME=!Skynet_57528_lach-hhg-170_20552_20993.cyb.fits
#     BASENAME=Skynet_57528_lach-hhg-170_20552_20993
#     SRC_NAME=lach-hhg-170
#     OBSERVER=hhgmadison16_9500
#     DATE_OBS=2016-05-20T18:19:56.500
#        OBSID=20552
#      SCANNUM=20993
#          MJD=57528.7649
#          UTC=66085
#     SCANTYPE=track
#     DATAMODE=HIRES
#     TUNEFREQ=1420.0000
# Actual_FREQ1=1420.0000
# Actual_FREQ2=1420.0000
#    LO1Tuning=6870.000
#     RFFILTER=1355_1435
#        OBSBW=-15.6250
#        NCHAN=1024 
#        FOCUS=37.0709
#           RA=05:19:28.54
#          DEC=37:18:55.67
#      RA(hrs)=5.324600
#     DEC(deg)=37.315500
#    AZIM(deg)=100.777
#    ELEV(deg)=84.936
#     IFattens=11.00, 9.00
#      WARNING=None
#    TCAL_XL1=7.9635
#    TCAL_YR1=9.1340
#    TCAL_XL2=7.9635
#    TCAL_YR2=9.1340
#     TRX_XL1=11.7060
#     TRX_YR1=11.7060
#     TRX_XL2=11.7060
#     TRX_YR2=11.7060
#        TAVE=1.0000
#Freq1(MHz)          XL1          YR1  Freq2(MHz)          XL2          YR2 

   1427.81250     377.8325     275.1622   1427.81250     377.8325     275.1622
   1427.79724     378.3339     275.9761   1427.79724     378.3339     275.9761
   1427.78198     378.5456     278.0594   1427.78198     378.5456     278.0594
   1427.76672     379.8179     278.8600   1427.76672     379.8179     278.8600
   1427.75146     380.8599     279.8952   1427.75146     380.8599     279.8952
   1427.73621     381.2920     281.2704   1427.73621     381.2920     281.2704
   1427.72095     381.7545     283.3077   1427.72095     381.7545     283.3077
   1427.70569     383.3980     284.7935   1427.70569     383.3980     284.7935
   1427.69043     384.0700     286.7463   1427.69043     384.0700     286.7463
   1427.67517     385.0964     287.8177   1427.67517     385.0964     287.8177
   1427.65991     386.1252     289.4937   1427.65991     386.1252     289.4937
   1427.64465     387.7622     291.3545   1427.64465     387.7622     291.3545
   1427.62939     388.9171     293.0201   1427.62939     388.9171     293.0201
   1427.61414     389.7266     294.1957   1427.61414     389.7266     294.1957
   1427.59888     390.8218     296.8500   1427.59888     390.8218     296.8500
   1427.58362     392.6521     298.4102   1427.58362     392.6521     298.4102
   1427.56836     393.9395     300.6179   1427.56836     393.9395     300.6179
   1427.55310     394.8656     302.5520   1427.55310     394.8656     302.5520
   1427.53784     396.8148     304.3078   1427.53784     396.8148     304.3078
   1427.52258     398.6185     306.2957   1427.52258     398.6185     306.2957
   1427.50732     400.1807     308.0704   1427.50732     400.1807     308.0704
   1427.49207     401.6783     310.4512   1427.49207     401.6783     310.4512
   1427.47681     403.6261     312.2228   1427.47681     403.6261     312.2228
   1427.46155     405.6311     314.4527   1427.46155     405.6311     314.4527
   1427.44629     407.1078     316.1996   1427.44629     407.1078     316.1996
   1427.43103     409.5364     318.3627   1427.43103     409.5364     318.3627
   1427.41577     410.4307     320.7231   1427.41577     410.4307     320.7231
   1427.40051     412.8197     322.8847   1427.40051     412.8197     322.8847
   1427.38525     414.7848     325.3260   1427.38525     414.7848     325.3260
   1427.37000     416.8585     327.7673   1427.37000     416.8585     327.7673
   1427.35474     418.7399     329.4413   1427.35474     418.7399     329.4413
   1427.33948     421.1057     332.1535   1427.33948     421.1057     332.1535
   1427.32422     423.4483     333.8374   1427.32422     423.4483     333.8374
   1427.30896     425.5448     336.7601   1427.30896     425.5448     336.7601
   1427.29370     427.1853     338.6619   1427.29370     427.1853     338.6619
   1427.27844     429.7997     341.2352   1427.27844     429.7997     341.2352
   1427.26318     432.1580     343.6393   1427.26318     432.1580     343.6393
   1427.24792     434.1543     346.3047   1427.24792     434.1543     346.3047
   1427.23267     436.7505     348.5493   1427.23267     436.7505     348.5493
   1427.21741     439.7594     351.0507   1427.21741     439.7594     351.0507
   1427.20215     442.0205     353.0332   1427.20215     442.0205     353.0332
   1427.18689     443.5237     355.8855   1427.18689     443.5237     355.8855
   1427.17163     447.1454     358.4119   1427.17163     447.1454     358.4119
   1427.15637     449.4765     361.1548   1427.15637     449.4765     361.1548
   1427.14111     451.9324     363.5326   1427.14111     451.9324     363.5326
   1427.12585     454.9336     366.3313   1427.12585     454.9336     366.3313
   1427.11060     456.9329     368.5464   1427.11060     456.9329     368.5464
   1427.09534     460.4285     370.9355   1427.09534     460.4285     370.9355
   1427.08008     463.2203     373.1638   1427.08008     463.2203     373.1638
   1427.06482     465.8192     375.7477   1427.06482     465.8192     375.7477
   1427.04956     468.0255     378.1527   1427.04956     468.0255     378.1527
   1427.03430     472.1280     380.9087   1427.03430     472.1280     380.9087
   1427.01904     473.8494     383.6329   1427.01904     473.8494     383.6329
   1427.00378     476.2113     385.7328   1427.00378     476.2113     385.7328
   1426.98853     479.7455     388.8318   1426.98853     479.7455     388.8318
   1426.97327     482.7805     390.3329   1426.97327     482.7805     390.3329
   1426.95801     485.7690     392.9803   1426.95801     485.7690     392.9803
   1426.94275     488.4194     395.8089   1426.94275     488.4194     395.8089
   1426.92749     491.3448     398.0946   1426.92749     491.3448     398.0946
   1426.91223     493.8280     400.2823   1426.91223     493.8280     400.2823
   1426.89697     497.7290     402.3433   1426.89697     497.7290     402.3433
   1426.88171     500.1218     405.4261   1426.88171     500.1218     405.4261
   1426.86646     504.0328     408.0016   1426.86646     504.0328     408.0016
   1426.85120     506.7079     411.1566   1426.85120     506.7079     411.1566
   1426.83594     509.7449     413.2573   1426.83594     509.7449     413.2573
   1426.82068     512.1705     415.4815   1426.82068     512.1705     415.4815
   1426.80542     516.2449     417.3231   1426.80542     516.2449     417.3231
   1426.79016     518.4064     420.5564   1426.79016     518.4064     420.5564
   1426.77490     520.6066     422.6629   1426.77490     520.6066     422.6629
   1426.75964     525.2411     424.4934   1426.75964     525.2411     424.4934
   1426.74438     527.8632     426.6468   1426.74438     527.8632     426.6468
   1426.72913     530.4027     429.8580   1426.72913     530.4027     429.8580
   1426.71387     534.2614     431.6897   1426.71387     534.2614     431.6897
   1426.69861     536.9293     434.4901   1426.69861     536.9293     434.4901
   1426.68335     540.1123     436.5922   1426.68335     540.1123     436.5922
   1426.66809     544.1058     438.4810   1426.66809     544.1058     438.4810
   1426.65283     547.0543     440.6429   1426.65283     547.0543     440.6429
   1426.63757     550.0474     443.9193   1426.63757     550.0474     443.9193
   1426.62231     554.2756     445.7751   1426.62231     554.2756     445.7751
   1426.60706     555.4141     448.0200   1426.60706     555.4141     448.0200
   1426.59180     559.9891     449.4218   1426.59180     559.9891     449.4218
   1426.57654     561.8683     451.7445   1426.57654     561.8683     451.7445
   1426.56128     565.3425     454.3438   1426.56128     565.3425     454.3438
   1426.54602     568.2349     455.4958   1426.54602     568.2349     455.4958
   1426.53076     572.6389     458.1380   1426.53076     572.6389     458.1380
   1426.51550     574.5259     459.3287   1426.51550     574.5259     459.3287
   1426.50024     578.3203     461.9200   1426.50024     578.3203     461.9200
   1426.48499     581.2405     464.0310   1426.48499     581.2405     464.0310
   1426.46973     584.1606     465.7999   1426.46973     584.1606     465.7999
   1426.45447     587.6020     467.3743   1426.45447     587.6020     467.3743
   1426.43921     590.5946     469.5187   1426.43921     590.5946     469.5187
   1426.42395     593.4910     471.4575   1426.42395     593.4910     471.4575
   1426.40869     596.6604     472.2615   1426.40869     596.6604     472.2615
   1426.39343     599.1150     475.0864   1426.39343     599.1150     475.0864
   1426.37817     602.2698     475.8359   1426.37817     602.2698     475.8359
   1426.36292     605.4399     478.5342   1426.36292     605.4399     478.5342
   1426.34766     608.2198     479.3713   1426.34766     608.2198     479.3713
   1426.33240     611.3835     481.9883   1426.33240     611.3835     481.9883
   1426.31714     613.8419     483.2366   1426.31714     613.8419     483.2366
   1426.30188     617.0472     485.0121   1426.30188     617.0472     485.0121
   1426.28662     619.6204     486.0172   1426.28662     619.6204     486.0172
   1426.27136     623.1998     488.2789   1426.27136     623.1998     488.2789
   1426.25610     625.5465     489.3727   1426.25610     625.5465     489.3727
   1426.24084     628.5588     490.7405   1426.24084     628.5588     490.7405
   1426.22559     630.9203     492.2186   1426.22559     630.9203     492.2186
   1426.21033     635.3383     495.0435   1426.21033     635.3383     495.0435
   1426.19507     638.2177     495.5013   1426.19507     638.2177     495.5013
   1426.17981     640.1376     496.7221   1426.17981     640.1376     496.7221
   1426.16455     643.2822     498.5663   1426.16455     643.2822     498.5663
   1426.14929     645.3666     499.4214   1426.14929     645.3666     499.4214
   1426.13403     648.9054     500.9530   1426.13403     648.9054     500.9530
   1426.11877     651.0219     502.7136   1426.11877     651.0219     502.7136
   1426.10352     653.9941     503.8611   1426.10352     653.9941     503.8611
   1426.08826     656.5178     504.6252   1426.08826     656.5178     504.6252
   1426.07300     660.1000     505.5427   1426.07300     660.1000     505.5427
   1426.05774     661.3638     507.3780   1426.05774     661.3638     507.3780
   1426.04248     664.3792     508.0612   1426.04248     664.3792     508.0612
   1426.02722     666.6795     509.9611   1426.02722     666.6795     509.9611
   1426.01196     669.3340     511.3468   1426.01196     669.3340     511.3468
   1425.99670     672.1567     511.5117   1425.99670     672.1567     511.5117
   1425.98145     674.3835     512.0145   1425.98145     674.3835     512.0145
   1425.96619     676.0557     513.1069   1425.96619     676.0557     513.1069
   1425.95093     678.7053     514.3786   1425.95093     678.7053     514.3786
   1425.93567     681.1782     515.0322   1425.93567     681.1782     515.0322
   1425.92041     683.7067     515.7429   1425.92041     683.7067     515.7429
   1425.90515     686.9016     516.9459   1425.90515     686.9016     516.9459
   1425.88989     689.2356     517.4459   1425.88989     689.2356     517.4459
   1425.87463     689.8417     518.7449   1425.87463     689.8417     518.7449
   1425.85938     692.8577     519.8875   1425.85938     692.8577     519.8875
   1425.84412     695.4818     520.3911   1425.84412     695.4818     520.3911
   1425.82886     696.8308     521.1300   1425.82886     696.8308     521.1300
   1425.81360     699.5781     522.0902   1425.81360     699.5781     522.0902
   1425.79834     701.3790     522.0379   1425.79834     701.3790     522.0379
   1425.78308     702.9887     523.5886   1425.78308     702.9887     523.5886
   1425.76782     705.8920     523.5570   1425.76782     705.8920     523.5570
   1425.75256     707.0038     524.2950   1425.75256     707.0038     524.2950
   1425.73730     709.6233     525.0715   1425.73730     709.6233     525.0715
   1425.72205     711.2720     525.8046   1425.72205     711.2720     525.8046
   1425.70679     714.0463     526.5797   1425.70679     714.0463     526.5797
   1425.69153     716.4517     526.7073   1425.69153     716.4517     526.7073
   1425.67627     716.7731     527.1682   1425.67627     716.7731     527.1682
   1425.66101     720.0034     528.0616   1425.66101     720.0034     528.0616
   1425.64575     719.9917     528.9384   1425.64575     719.9917     528.9384
   1425.63049     722.4885     529.4618   1425.63049     722.4885     529.4618
   1425.61523     723.7519     529.8571   1425.61523     723.7519     529.8571
   1425.59998     726.0638     530.9643   1425.59998     726.0638     530.9643
   1425.58472     727.1243     530.7911   1425.58472     727.1243     530.7911
   1425.56946     728.8520     530.7645   1425.56946     728.8520     530.7645
   1425.55420     730.5720     531.6719   1425.55420     730.5720     531.6719
   1425.53894     732.2791     532.0295   1425.53894     732.2791     532.0295
   1425.52368     733.0579     531.9946   1425.52368     733.0579     531.9946
   1425.50842     735.5968     531.9633   1425.50842     735.5968     531.9633
   1425.49316     737.0434     531.8148   1425.49316     737.0434     531.8148
   1425.47791     737.2959     532.7538   1425.47791     737.2959     532.7538
   1425.46265     738.6018     533.1295   1425.46265     738.6018     533.1295
   1425.44739     741.1194     533.7537   1425.44739     741.1194     533.7537
   1425.43213     741.6744     533.2316   1425.43213     741.6744     533.2316
   1425.41687     743.8135     534.1091   1425.41687     743.8135     534.1091
   1425.40161     743.5649     533.6721   1425.40161     743.5649     533.6721
   1425.38635     747.0688     534.8495   1425.38635     747.0688     534.8495
   1425.37109     746.1748     534.5036   1425.37109     746.1748     534.5036
   1425.35583     747.5430     534.7573   1425.35583     747.5430     534.7573
   1425.34058     749.3343     535.2441   1425.34058     749.3343     535.2441
   1425.32532     749.3470     534.3976   1425.32532     749.3470     534.3976
   1425.31006     752.0653     534.1405   1425.31006     752.0653     534.1405
   1425.29480     752.2420     535.5267   1425.29480     752.2420     535.5267
   1425.27954     754.6281     534.8308   1425.27954     754.6281     534.8308
   1425.26428     754.4749     535.1793   1425.26428     754.4749     535.1793
   1425.24902     755.0911     534.7727   1425.24902     755.0911     534.7727
   1425.23376     754.9098     535.2650   1425.23376     754.9098     535.2650
   1425.21851     755.9583     535.6620   1425.21851     755.9583     535.6620
   1425.20325     758.1135     534.9209   1425.20325     758.1135     534.9209
   1425.18799     758.5788     535.3561   1425.18799     758.5788     535.3561
   1425.17273     759.5853     534.5701   1425.17273     759.5853     534.5701
   1425.15747     760.8438     535.1534   1425.15747     760.8438     535.1534
   1425.14221     760.7187     534.9669   1425.14221     760.7187     534.9669
   1425.12695     761.2872     535.0827   1425.12695     761.2872     535.0827
   1425.11169     762.3709     535.0910   1425.11169     762.3709     535.0910
   1425.09644     763.7584     534.7462   1425.09644     763.7584     534.7462
   1425.08118     764.3407     534.4517   1425.08118     764.3407     534.4517
   1425.06592     764.3345     534.1618   1425.06592     764.3345     534.1618
   1425.05066     763.4785     533.0946   1425.05066     763.4785     533.0946
   1425.03540     765.7635     534.6534   1425.03540     765.7635     534.6534
   1425.02014     764.9532     533.4995   1425.02014     764.9532     533.4995
   1425.00488     766.4993     532.8428   1425.00488     766.4993     532.8428
   1424.98962     767.0054     533.7188   1424.98962     767.0054     533.7188
   1424.97437     767.0248     532.9532   1424.97437     767.0248     532.9532
   1424.95911     767.9247     532.5231   1424.95911     767.9247     532.5231
   1424.94385     765.9952     533.0606   1424.94385     765.9952     533.0606
   1424.92859     767.5834     531.7688   1424.92859     767.5834     531.7688
   1424.91333     769.7183     532.0269   1424.91333     769.7183     532.0269
   1424.89807     769.3446     531.8102   1424.89807     769.3446     531.8102
   1424.88281     769.9459     532.0500   1424.88281     769.9459     532.0500
   1424.86755     769.2440     531.1370   1424.86755     769.2440     531.1370
   1424.85229     770.2057     531.3136   1424.85229     770.2057     531.3136
   1424.83704     770.2782     530.8892   1424.83704     770.2782     530.8892
   1424.82178     769.8033     529.7043   1424.82178     769.8033     529.7043
   1424.80652     770.6985     530.6756   1424.80652     770.6985     530.6756
   1424.79126     771.1826     530.4106   1424.79126     771.1826     530.4106
   1424.77600     770.5826     529.9741   1424.77600     770.5826     529.9741
   1424.76074     771.2645     529.1086   1424.76074     771.2645     529.1086
   1424.74548     770.6207     528.9520   1424.74548     770.6207     528.9520
   1424.73022     771.6955     528.4832   1424.73022     771.6955     528.4832
   1424.71497     771.9942     527.7613   1424.71497     771.9942     527.7613
   1424.69971     771.0128     526.9349   1424.69971     771.0128     526.9349
   1424.68445     770.7241     527.3602   1424.68445     770.7241     527.3602
   1424.66919     771.5162     526.7500   1424.66919     771.5162     526.7500
   1424.65393     770.4476     526.6915   1424.65393     770.4476     526.6915
   1424.63867     771.8330     524.9854   1424.63867     771.8330     524.9854
   1424.62341     771.7289     524.7793   1424.62341     771.7289     524.7793
   1424.60815     771.1007     525.0336   1424.60815     771.1007     525.0336
   1424.59290     771.1455     524.4955   1424.59290     771.1455     524.4955
   1424.57764     770.0432     524.9824   1424.57764     770.0432     524.9824
   1424.56238     769.7134     523.3135   1424.56238     769.7134     523.3135
   1424.54712     770.2528     522.8390   1424.54712     770.2528     522.8390
   1424.53186     770.2400     523.5182   1424.53186     770.2400     523.5182
   1424.51660     769.1140     522.4564   1424.51660     769.1140     522.4564
   1424.50134     770.4347     522.1190   1424.50134     770.4347     522.1190
   1424.48608     770.3531     520.7465   1424.48608     770.3531     520.7465
   1424.47083     769.4225     521.1434   1424.47083     769.4225     521.1434
   1424.45557     769.5731     521.5168   1424.45557     769.5731     521.5168
   1424.44031     769.8458     520.1316   1424.44031     769.8458     520.1316
   1424.42505     769.8353     519.3488   1424.42505     769.8353     519.3488
   1424.40979     768.8414     518.9811   1424.40979     768.8414     518.9811
   1424.39453     769.4980     518.5321   1424.39453     769.4980     518.5321
   1424.37927     769.5987     518.2595   1424.37927     769.5987     518.2595
   1424.36401     767.8651     517.3790   1424.36401     767.8651     517.3790
   1424.34875     767.5995     517.0543   1424.34875     767.5995     517.0543
   1424.33350     767.5121     517.4564   1424.33350     767.5121     517.4564
   1424.31824     767.7146     516.0311   1424.31824     767.7146     516.0311
   1424.30298     768.4962     515.2272   1424.30298     768.4962     515.2272
   1424.28772     767.2253     514.3605   1424.28772     767.2253     514.3605
   1424.27246     766.6602     515.2892   1424.27246     766.6602     515.2892
   1424.25720     767.0892     514.1559   1424.25720     767.0892     514.1559
   1424.24194     766.3297     513.2159   1424.24194     766.3297     513.2159
   1424.22668     765.5128     513.3883   1424.22668     765.5128     513.3883
   1424.21143     765.1663     513.3075   1424.21143     765.1663     513.3075
   1424.19617     764.9358     512.3590   1424.19617     764.9358     512.3590
   1424.18091     763.2974     510.5119   1424.18091     763.2974     510.5119
   1424.16565     764.4505     510.7357   1424.16565     764.4505     510.7357
