#     FILENAME=!Skynet_57528_lach-cc-208_20615_21051.cyb.fits
#     BASENAME=Skynet_57528_lach-cc-208_20615_21051
#     SRC_NAME=lach-cc-208
#     OBSERVER=ccmadison16_9505
#     DATE_OBS=2016-05-20T20:18:50.250
#        OBSID=20615
#      SCANNUM=21051
#          MJD=57528.8475
#          UTC=73220
#     SCANTYPE=track
#     DATAMODE=HIRES
#     TUNEFREQ=1420.0000
# Actual_FREQ1=1420.0000
# Actual_FREQ2=1420.0000
#    LO1Tuning=6870.000
#     RFFILTER=1355_1435
#        OBSBW=-15.6250
#        NCHAN=1024 
#        FOCUS=37.0709
#           RA=06:42:26.71
#          DEC=04:23:17.23
#      RA(hrs)=6.707400
#     DEC(deg)=4.388100
#    AZIM(deg)=184.738
#    ELEV(deg)=55.693
#     IFattens=10.00, 9.00
#      WARNING=None
#    TCAL_XL1=7.9635
#    TCAL_YR1=9.1340
#    TCAL_XL2=7.9635
#    TCAL_YR2=9.1340
#     TRX_XL1=11.7060
#     TRX_YR1=11.7060
#     TRX_XL2=11.7060
#     TRX_YR2=11.7060
#        TAVE=1.0000
#Freq1(MHz)          XL1          YR1  Freq2(MHz)          XL2          YR2 

   1427.81250     358.4948     264.2995   1427.81250     358.4948     264.2995
   1427.79724     359.7166     265.1243   1427.79724     359.7166     265.1243
   1427.78198     359.3575     266.1854   1427.78198     359.3575     266.1854
   1427.76672     360.2524     266.2475   1427.76672     360.2524     266.2475
   1427.75146     361.6135     267.5278   1427.75146     361.6135     267.5278
   1427.73621     361.8659     268.0195   1427.73621     361.8659     268.0195
   1427.72095     362.8203     269.6165   1427.72095     362.8203     269.6165
   1427.70569     363.4828     269.9445   1427.70569     363.4828     269.9445
   1427.69043     364.5957     271.1517   1427.69043     364.5957     271.1517
   1427.67517     365.8337     271.6754   1427.67517     365.8337     271.6754
   1427.65991     367.1371     273.1026   1427.65991     367.1371     273.1026
   1427.64465     367.7393     274.1169   1427.64465     367.7393     274.1169
   1427.62939     368.2780     275.3016   1427.62939     368.2780     275.3016
   1427.61414     370.4563     276.6696   1427.61414     370.4563     276.6696
   1427.59888     371.1419     277.4745   1427.59888     371.1419     277.4745
   1427.58362     372.3094     278.6442   1427.58362     372.3094     278.6442
   1427.56836     373.9083     279.8094   1427.56836     373.9083     279.8094
   1427.55310     375.4236     281.1971   1427.55310     375.4236     281.1971
   1427.53784     377.4498     282.5258   1427.53784     377.4498     282.5258
   1427.52258     378.8175     283.8716   1427.52258     378.8175     283.8716
   1427.50732     380.0113     285.2878   1427.50732     380.0113     285.2878
   1427.49207     381.4804     286.4575   1427.49207     381.4804     286.4575
   1427.47681     382.8182     287.6064   1427.47681     382.8182     287.6064
   1427.46155     385.7955     290.6429   1427.46155     385.7955     290.6429
   1427.44629     386.5225     291.3558   1427.44629     386.5225     291.3558
   1427.43103     388.4919     292.7235   1427.43103     388.4919     292.7235
   1427.41577     389.9745     294.4606   1427.41577     389.9745     294.4606
   1427.40051     391.9782     295.6839   1427.40051     391.9782     295.6839
   1427.38525     393.9966     297.1341   1427.38525     393.9966     297.1341
   1427.37000     396.1095     299.2218   1427.37000     396.1095     299.2218
   1427.35474     397.8465     300.8578   1427.35474     397.8465     300.8578
   1427.33948     399.9042     302.9385   1427.33948     399.9042     302.9385
   1427.32422     401.5266     304.6277   1427.32422     401.5266     304.6277
   1427.30896     403.6627     306.1708   1427.30896     403.6627     306.1708
   1427.29370     405.8156     307.9822   1427.29370     405.8156     307.9822
   1427.27844     408.1572     309.9916   1427.27844     408.1572     309.9916
   1427.26318     410.4962     312.1966   1427.26318     410.4962     312.1966
   1427.24792     412.7717     313.5011   1427.24792     412.7717     313.5011
   1427.23267     414.7065     315.9872   1427.23267     414.7065     315.9872
   1427.21741     417.1195     317.9718   1427.21741     417.1195     317.9718
   1427.20215     418.8860     319.7349   1427.20215     418.8860     319.7349
   1427.18689     422.2570     322.0938   1427.18689     422.2570     322.0938
   1427.17163     424.2733     324.2479   1427.17163     424.2733     324.2479
   1427.15637     427.1799     326.1624   1427.15637     427.1799     326.1624
   1427.14111     428.9025     328.6227   1427.14111     428.9025     328.6227
   1427.12585     431.1060     330.0152   1427.12585     431.1060     330.0152
   1427.11060     433.7437     332.5705   1427.11060     433.7437     332.5705
   1427.09534     436.7092     335.0273   1427.09534     436.7092     335.0273
   1427.08008     439.2192     336.7488   1427.08008     439.2192     336.7488
   1427.06482     442.0177     339.1317   1427.06482     442.0177     339.1317
   1427.04956     444.2983     341.9493   1427.04956     444.2983     341.9493
   1427.03430     447.2686     343.5249   1427.03430     447.2686     343.5249
   1427.01904     449.6779     345.8149   1427.01904     449.6779     345.8149
   1427.00378     452.5274     348.4071   1427.00378     452.5274     348.4071
   1426.98853     454.8515     350.8743   1426.98853     454.8515     350.8743
   1426.97327     458.3554     352.8688   1426.97327     458.3554     352.8688
   1426.95801     461.2832     355.4882   1426.95801     461.2832     355.4882
   1426.94275     463.2406     357.6410   1426.94275     463.2406     357.6410
   1426.92749     465.1302     360.5510   1426.92749     465.1302     360.5510
   1426.91223     469.0542     361.9966   1426.91223     469.0542     361.9966
   1426.89697     471.2045     364.8405   1426.89697     471.2045     364.8405
   1426.88171     474.0906     366.7103   1426.88171     474.0906     366.7103
   1426.86646     477.5364     369.3284   1426.86646     477.5364     369.3284
   1426.85120     479.5881     372.2386   1426.85120     479.5881     372.2386
   1426.83594     483.0476     374.8003   1426.83594     483.0476     374.8003
   1426.82068     485.1631     377.1103   1426.82068     485.1631     377.1103
   1426.80542     488.4370     379.3259   1426.80542     488.4370     379.3259
   1426.79016     491.5195     381.8065   1426.79016     491.5195     381.8065
   1426.77490     494.2323     383.8951   1426.77490     494.2323     383.8951
   1426.75964     497.3988     386.0298   1426.75964     497.3988     386.0298
   1426.74438     500.4927     389.4306   1426.74438     500.4927     389.4306
   1426.72913     503.2808     391.9298   1426.72913     503.2808     391.9298
   1426.71387     505.7084     394.1819   1426.71387     505.7084     394.1819
   1426.69861     508.6585     397.1948   1426.69861     508.6585     397.1948
   1426.68335     511.4527     399.6955   1426.68335     511.4527     399.6955
   1426.66809     514.6171     402.2633   1426.66809     514.6171     402.2633
   1426.65283     517.8702     404.1653   1426.65283     517.8702     404.1653
   1426.63757     520.6250     406.9534   1426.63757     520.6250     406.9534
   1426.62231     523.9803     412.4507   1426.62231     523.9803     412.4507
   1426.60706     525.7702     412.1073   1426.60706     525.7702     412.1073
   1426.59180     528.8802     414.4558   1426.59180     528.8802     414.4558
   1426.57654     532.7519     417.2376   1426.57654     532.7519     417.2376
   1426.56128     535.6950     419.6618   1426.56128     535.6950     419.6618
   1426.54602     537.4556     422.0935   1426.54602     537.4556     422.0935
   1426.53076     540.5286     425.0570   1426.53076     540.5286     425.0570
   1426.51550     543.8085     427.2463   1426.51550     543.8085     427.2463
   1426.50024     546.5157     429.6083   1426.50024     546.5157     429.6083
   1426.48499     548.9863     431.5788   1426.48499     548.9863     431.5788
   1426.46973     552.3018     434.0526   1426.46973     552.3018     434.0526
   1426.45447     554.5878     437.0765   1426.45447     554.5878     437.0765
   1426.43921     557.8591     439.6131   1426.43921     557.8591     439.6131
   1426.42395     560.4459     441.6613   1426.42395     560.4459     441.6613
   1426.40869     562.6437     444.6493   1426.40869     562.6437     444.6493
   1426.39343     565.8129     447.1530   1426.39343     565.8129     447.1530
   1426.37817     568.8187     449.0823   1426.37817     568.8187     449.0823
   1426.36292     572.0032     452.2673   1426.36292     572.0032     452.2673
   1426.34766     573.4021     453.7910   1426.34766     573.4021     453.7910
   1426.33240     576.6826     456.4321   1426.33240     576.6826     456.4321
   1426.31714     579.5399     459.5054   1426.31714     579.5399     459.5054
   1426.30188     582.5661     461.1653   1426.30188     582.5661     461.1653
   1426.28662     585.0034     463.8450   1426.28662     585.0034     463.8450
   1426.27136     587.5511     466.0743   1426.27136     587.5511     466.0743
   1426.25610     590.5914     468.3766   1426.25610     590.5914     468.3766
   1426.24084     593.3926     470.4422   1426.24084     593.3926     470.4422
   1426.22559     596.4012     473.4643   1426.22559     596.4012     473.4643
   1426.21033     598.4053     475.5376   1426.21033     598.4053     475.5376
   1426.19507     600.5488     478.0179   1426.19507     600.5488     478.0179
   1426.17981     602.4037     480.7487   1426.17981     602.4037     480.7487
   1426.16455     606.1700     482.6363   1426.16455     606.1700     482.6363
   1426.14929     607.8806     484.6511   1426.14929     607.8806     484.6511
   1426.13403     610.6094     486.7657   1426.13403     610.6094     486.7657
   1426.11877     613.2947     488.6567   1426.11877     613.2947     488.6567
   1426.10352     615.7057     491.8141   1426.10352     615.7057     491.8141
   1426.08826     618.3529     493.7977   1426.08826     618.3529     493.7977
   1426.07300     619.6140     495.6344   1426.07300     619.6140     495.6344
   1426.05774     623.4358     497.8768   1426.05774     623.4358     497.8768
   1426.04248     624.8162     500.5404   1426.04248     624.8162     500.5404
   1426.02722     626.7363     502.3402   1426.02722     626.7363     502.3402
   1426.01196     629.8933     505.3102   1426.01196     629.8933     505.3102
   1425.99670     631.1827     506.3306   1425.99670     631.1827     506.3306
   1425.98145     633.7198     509.3295   1425.98145     633.7198     509.3295
   1425.96619     636.6782     510.6571   1425.96619     636.6782     510.6571
   1425.95093     637.7153     513.6910   1425.95093     637.7153     513.6910
   1425.93567     640.0010     514.6848   1425.93567     640.0010     514.6848
   1425.92041     642.8154     517.0809   1425.92041     642.8154     517.0809
   1425.90515     644.0634     519.5458   1425.90515     644.0634     519.5458
   1425.88989     646.4883     520.8391   1425.88989     646.4883     520.8391
   1425.87463     648.1501     523.0236   1425.87463     648.1501     523.0236
   1425.85938     650.6732     524.7352   1425.85938     650.6732     524.7352
   1425.84412     651.5536     526.5543   1425.84412     651.5536     526.5543
   1425.82886     654.2192     528.9991   1425.82886     654.2192     528.9991
   1425.81360     657.2659     530.2418   1425.81360     657.2659     530.2418
   1425.79834     659.1085     532.3046   1425.79834     659.1085     532.3046
   1425.78308     660.0890     534.5819   1425.78308     660.0890     534.5819
   1425.76782     662.3746     535.9145   1425.76782     662.3746     535.9145
   1425.75256     664.2017     537.2833   1425.75256     664.2017     537.2833
   1425.73730     666.1388     539.4489   1425.73730     666.1388     539.4489
   1425.72205     666.7806     540.7275   1425.72205     666.7806     540.7275
   1425.70679     669.3638     542.4279   1425.70679     669.3638     542.4279
   1425.69153     670.2820     545.8398   1425.69153     670.2820     545.8398
   1425.67627     672.0958     546.1481   1425.67627     672.0958     546.1481
   1425.66101     673.6677     548.3858   1425.66101     673.6677     548.3858
   1425.64575     675.5150     549.0010   1425.64575     675.5150     549.0010
   1425.63049     676.8492     551.4092   1425.63049     676.8492     551.4092
   1425.61523     678.0720     553.0898   1425.61523     678.0720     553.0898
   1425.59998     680.1807     555.1319   1425.59998     680.1807     555.1319
   1425.58472     680.6594     556.3116   1425.58472     680.6594     556.3116
   1425.56946     680.9548     557.5891   1425.56946     680.9548     557.5891
   1425.55420     683.0701     559.9366   1425.55420     683.0701     559.9366
   1425.53894     684.5202     561.4112   1425.53894     684.5202     561.4112
   1425.52368     685.7994     563.1663   1425.52368     685.7994     563.1663
   1425.50842     687.6051     563.9720   1425.50842     687.6051     563.9720
   1425.49316     689.6562     565.6401   1425.49316     689.6562     565.6401
   1425.47791     690.8277     567.3019   1425.47791     690.8277     567.3019
   1425.46265     692.1471     568.3105   1425.46265     692.1471     568.3105
   1425.44739     693.1887     570.0745   1425.44739     693.1887     570.0745
   1425.43213     694.1281     571.7453   1425.43213     694.1281     571.7453
   1425.41687     696.3546     573.1008   1425.41687     696.3546     573.1008
   1425.40161     694.2017     573.6093   1425.40161     694.2017     573.6093
   1425.38635     697.9160     576.1176   1425.38635     697.9160     576.1176
   1425.37109     699.0663     576.4774   1425.37109     699.0663     576.4774
   1425.35583     699.3406     578.7155   1425.35583     699.3406     578.7155
   1425.34058     699.9256     578.7859   1425.34058     699.9256     578.7859
   1425.32532     701.0825     580.7729   1425.32532     701.0825     580.7729
   1425.31006     703.2540     582.3557   1425.31006     703.2540     582.3557
   1425.29480     703.3433     583.3890   1425.29480     703.3433     583.3890
   1425.27954     703.6547     584.2642   1425.27954     703.6547     584.2642
   1425.26428     704.7631     583.8527   1425.26428     704.7631     583.8527
   1425.24902     705.2591     585.6232   1425.24902     705.2591     585.6232
   1425.23376     706.1883     587.3118   1425.23376     706.1883     587.3118
   1425.21851     707.4067     589.3372   1425.21851     707.4067     589.3372
   1425.20325     708.4599     589.9515   1425.20325     708.4599     589.9515
   1425.18799     708.8639     590.5317   1425.18799     708.8639     590.5317
   1425.17273     709.5328     591.3179   1425.17273     709.5328     591.3179
   1425.15747     710.5962     593.0362   1425.15747     710.5962     593.0362
   1425.14221     710.2922     594.2991   1425.14221     710.2922     594.2991
   1425.12695     711.1646     594.9615   1425.12695     711.1646     594.9615
   1425.11169     711.2349     596.9449   1425.11169     711.2349     596.9449
   1425.09644     713.5759     597.1923   1425.09644     713.5759     597.1923
   1425.08118     713.4329     598.3973   1425.08118     713.4329     598.3973
   1425.06592     713.4509     597.7941   1425.06592     713.4509     597.7941
   1425.05066     712.3497     599.9525   1425.05066     712.3497     599.9525
   1425.03540     715.2778     601.8759   1425.03540     715.2778     601.8759
   1425.02014     714.4253     601.5156   1425.02014     714.4253     601.5156
   1425.00488     715.9006     602.6550   1425.00488     715.9006     602.6550
   1424.98962     715.8636     603.3613   1424.98962     715.8636     603.3613
   1424.97437     717.5114     604.0109   1424.97437     717.5114     604.0109
   1424.95911     716.7789     604.3871   1424.95911     716.7789     604.3871
   1424.94385     717.6970     605.4241   1424.94385     717.6970     605.4241
   1424.92859     716.9603     606.5198   1424.92859     716.9603     606.5198
   1424.91333     717.0235     607.2122   1424.91333     717.0235     607.2122
   1424.89807     718.8016     607.8559   1424.89807     718.8016     607.8559
   1424.88281     718.4175     607.9684   1424.88281     718.4175     607.9684
   1424.86755     719.5710     608.1192   1424.86755     719.5710     608.1192
   1424.85229     718.8143     610.3049   1424.85229     718.8143     610.3049
   1424.83704     719.3149     609.8104   1424.83704     719.3149     609.8104
   1424.82178     718.5223     610.5229   1424.82178     718.5223     610.5229
   1424.80652     720.0227     611.4128   1424.80652     720.0227     611.4128
   1424.79126     719.4675     613.2002   1424.79126     719.4675     613.2002
   1424.77600     719.8832     613.9039   1424.77600     719.8832     613.9039
   1424.76074     720.8370     613.7042   1424.76074     720.8370     613.7042
   1424.74548     719.6891     614.4316   1424.74548     719.6891     614.4316
   1424.73022     719.0399     614.7198   1424.73022     719.0399     614.7198
   1424.71497     720.6309     615.2715   1424.71497     720.6309     615.2715
   1424.69971     720.3814     615.4838   1424.69971     720.3814     615.4838
   1424.68445     719.5550     616.1123   1424.68445     719.5550     616.1123
   1424.66919     719.9683     616.9552   1424.66919     719.9683     616.9552
   1424.65393     719.9182     616.8182   1424.65393     719.9182     616.8182
   1424.63867     719.8128     617.3986   1424.63867     719.8128     617.3986
   1424.62341     720.2545     618.1237   1424.62341     720.2545     618.1237
   1424.60815     719.0577     618.8317   1424.60815     719.0577     618.8317
   1424.59290     720.8854     617.8797   1424.59290     720.8854     617.8797
   1424.57764     719.9781     619.0456   1424.57764     719.9781     619.0456
   1424.56238     720.4594     620.1365   1424.56238     720.4594     620.1365
   1424.54712     719.6816     620.0433   1424.54712     719.6816     620.0433
   1424.53186     720.4352     619.5985   1424.53186     720.4352     619.5985
   1424.51660     719.7338     621.3055   1424.51660     719.7338     621.3055
   1424.50134     719.7430     620.9047   1424.50134     719.7430     620.9047
   1424.48608     720.1230     620.4478   1424.48608     720.1230     620.4478
   1424.47083     719.5667     619.6097   1424.47083     719.5667     619.6097
   1424.45557     720.1442     620.9136   1424.45557     720.1442     620.9136
   1424.44031     719.7456     622.5166   1424.44031     719.7456     622.5166
   1424.42505     718.5828     623.0619   1424.42505     718.5828     623.0619
   1424.40979     718.8340     622.6430   1424.40979     718.8340     622.6430
   1424.39453     719.2768     622.3625   1424.39453     719.2768     622.3625
   1424.37927     719.3452     622.9817   1424.37927     719.3452     622.9817
   1424.36401     718.9771     622.8796   1424.36401     718.9771     622.8796
   1424.34875     718.6631     623.4138   1424.34875     718.6631     623.4138
   1424.33350     718.9014     623.6523   1424.33350     718.9014     623.6523
   1424.31824     717.3522     623.3449   1424.31824     717.3522     623.3449
   1424.30298     718.6257     623.1220   1424.30298     718.6257     623.1220
   1424.28772     717.9449     624.3910   1424.28772     717.9449     624.3910
   1424.27246     717.5425     623.9125   1424.27246     717.5425     623.9125
   1424.25720     718.5126     624.4587   1424.25720     718.5126     624.4587
   1424.24194     718.1448     623.7620   1424.24194     718.1448     623.7620
   1424.22668     718.0360     624.6591   1424.22668     718.0360     624.6591
   1424.21143     717.0952     623.8713   1424.21143     717.0952     623.8713
   1424.19617     716.6520     624.8929   1424.19617     716.6520     624.8929
   1424.18091     716.3807     624.4234   1424.18091     716.3807     624.4234
   1424.16565     716.1124     624.7808   1424.16565     716.1124     624.7808
