#     FILENAME=!Skynet_57528_lach-hhg-162_20532_20986.cyb.fits
#     BASENAME=Skynet_57528_lach-hhg-162_20532_20986
#     SRC_NAME=lach-hhg-162
#     OBSERVER=hhgmadison16_9500
#     DATE_OBS=2016-05-20T18:02:10.750
#        OBSID=20532
#      SCANNUM=20986
#          MJD=57528.7526
#          UTC=65020
#     SCANTYPE=track
#     DATAMODE=HIRES
#     TUNEFREQ=1420.0000
# Actual_FREQ1=1420.0000
# Actual_FREQ2=1420.0000
#    LO1Tuning=6870.000
#     RFFILTER=1355_1435
#        OBSBW=-15.6250
#        NCHAN=1024 
#        FOCUS=37.0709
#           RA=04:54:05.43
#          DEC=43:42:29.68
#      RA(hrs)=4.901500
#     DEC(deg)=43.708200
#    AZIM(deg)=29.701
#    ELEV(deg)=83.741
#     IFattens=10.00, 9.00
#      WARNING=None
#    TCAL_XL1=7.9635
#    TCAL_YR1=9.1340
#    TCAL_XL2=7.9635
#    TCAL_YR2=9.1340
#     TRX_XL1=11.7060
#     TRX_YR1=11.7060
#     TRX_XL2=11.7060
#     TRX_YR2=11.7060
#        TAVE=1.0000
#Freq1(MHz)          XL1          YR1  Freq2(MHz)          XL2          YR2 

   1427.81250     376.4283     336.6216   1427.81250     376.4283     336.6216
   1427.79724     377.2504     337.5538   1427.79724     377.2504     337.5538
   1427.78198     377.7344     339.3815   1427.78198     377.7344     339.3815
   1427.76672     377.6801     340.9199   1427.76672     377.6801     340.9199
   1427.75146     378.6239     343.3954   1427.75146     378.6239     343.3954
   1427.73621     379.9109     345.0461   1427.73621     379.9109     345.0461
   1427.72095     380.5188     346.6613   1427.72095     380.5188     346.6613
   1427.70569     382.0433     348.1793   1427.70569     382.0433     348.1793
   1427.69043     382.6344     349.9002   1427.69043     382.6344     349.9002
   1427.67517     383.3956     351.4647   1427.67517     383.3956     351.4647
   1427.65991     384.3359     354.0532   1427.65991     384.3359     354.0532
   1427.64465     385.6599     355.9513   1427.64465     385.6599     355.9513
   1427.62939     386.8560     358.1981   1427.62939     386.8560     358.1981
   1427.61414     387.7293     360.5222   1427.61414     387.7293     360.5222
   1427.59888     389.6889     362.2559   1427.59888     389.6889     362.2559
   1427.58362     391.0500     364.1211   1427.58362     391.0500     364.1211
   1427.56836     392.3558     367.1742   1427.56836     392.3558     367.1742
   1427.55310     393.6449     368.2100   1427.55310     393.6449     368.2100
   1427.53784     394.5938     371.3713   1427.53784     394.5938     371.3713
   1427.52258     397.0789     373.6798   1427.52258     397.0789     373.6798
   1427.50732     398.5657     375.4158   1427.50732     398.5657     375.4158
   1427.49207     400.4266     378.2185   1427.49207     400.4266     378.2185
   1427.47681     401.7342     380.5507   1427.47681     401.7342     380.5507
   1427.46155     403.1893     383.1268   1427.46155     403.1893     383.1268
   1427.44629     404.9998     385.5600   1427.44629     404.9998     385.5600
   1427.43103     406.5877     387.5163   1427.43103     406.5877     387.5163
   1427.41577     408.6304     390.1921   1427.41577     408.6304     390.1921
   1427.40051     410.7667     393.2101   1427.40051     410.7667     393.2101
   1427.38525     412.5762     395.0690   1427.38525     412.5762     395.0690
   1427.37000     414.5827     398.1640   1427.37000     414.5827     398.1640
   1427.35474     416.0738     400.6570   1427.35474     416.0738     400.6570
   1427.33948     418.5901     403.2119   1427.33948     418.5901     403.2119
   1427.32422     421.1965     406.0253   1427.32422     421.1965     406.0253
   1427.30896     423.0302     408.2305   1427.30896     423.0302     408.2305
   1427.29370     425.0122     411.8150   1427.29370     425.0122     411.8150
   1427.27844     427.3903     414.3755   1427.27844     427.3903     414.3755
   1427.26318     429.9074     417.1375   1427.26318     429.9074     417.1375
   1427.24792     432.2682     420.3584   1427.24792     432.2682     420.3584
   1427.23267     433.9136     422.4798   1427.23267     433.9136     422.4798
   1427.21741     437.1512     425.3006   1427.21741     437.1512     425.3006
   1427.20215     438.9318     428.0327   1427.20215     438.9318     428.0327
   1427.18689     441.6996     431.0622   1427.18689     441.6996     431.0622
   1427.17163     443.5931     433.5978   1427.17163     443.5931     433.5978
   1427.15637     446.6434     436.9475   1427.15637     446.6434     436.9475
   1427.14111     448.3732     439.2151   1427.14111     448.3732     439.2151
   1427.12585     451.8792     441.7754   1427.12585     451.8792     441.7754
   1427.11060     454.2191     445.2987   1427.11060     454.2191     445.2987
   1427.09534     457.4094     447.4447   1427.09534     457.4094     447.4447
   1427.08008     459.6174     450.0263   1427.08008     459.6174     450.0263
   1427.06482     461.9763     452.8412   1427.06482     461.9763     452.8412
   1427.04956     464.7024     456.5662   1427.04956     464.7024     456.5662
   1427.03430     467.6339     459.0168   1427.03430     467.6339     459.0168
   1427.01904     470.3434     461.6467   1427.01904     470.3434     461.6467
   1427.00378     472.2946     464.6574   1427.00378     472.2946     464.6574
   1426.98853     475.7230     468.2091   1426.98853     475.7230     468.2091
   1426.97327     478.6896     469.5091   1426.97327     478.6896     469.5091
   1426.95801     481.5961     472.6252   1426.95801     481.5961     472.6252
   1426.94275     484.8701     476.1185   1426.94275     484.8701     476.1185
   1426.92749     488.0270     478.1702   1426.92749     488.0270     478.1702
   1426.91223     490.4995     480.8726   1426.91223     490.4995     480.8726
   1426.89697     493.2225     483.6946   1426.89697     493.2225     483.6946
   1426.88171     496.5897     486.1258   1426.88171     496.5897     486.1258
   1426.86646     499.7878     489.1281   1426.86646     499.7878     489.1281
   1426.85120     501.2613     491.6039   1426.85120     501.2613     491.6039
   1426.83594     504.7829     494.2660   1426.83594     504.7829     494.2660
   1426.82068     508.5244     497.8092   1426.82068     508.5244     497.8092
   1426.80542     511.1223     500.9866   1426.80542     511.1223     500.9866
   1426.79016     514.8069     503.2062   1426.79016     514.8069     503.2062
   1426.77490     517.8485     505.3938   1426.77490     517.8485     505.3938
   1426.75964     520.4688     507.9794   1426.75964     520.4688     507.9794
   1426.74438     524.3838     510.7427   1426.74438     524.3838     510.7427
   1426.72913     527.2070     512.9484   1426.72913     527.2070     512.9484
   1426.71387     529.8578     515.3628   1426.71387     529.8578     515.3628
   1426.69861     533.1336     518.5724   1426.69861     533.1336     518.5724
   1426.68335     535.2072     521.5459   1426.68335     535.2072     521.5459
   1426.66809     539.3577     522.6063   1426.66809     539.3577     522.6063
   1426.65283     542.0166     525.3046   1426.65283     542.0166     525.3046
   1426.63757     545.5435     528.7622   1426.63757     545.5435     528.7622
   1426.62231     553.5491     536.2376   1426.62231     553.5491     536.2376
   1426.60706     551.5703     532.3415   1426.60706     551.5703     532.3415
   1426.59180     554.0343     535.3708   1426.59180     554.0343     535.3708
   1426.57654     557.8627     538.3645   1426.57654     557.8627     538.3645
   1426.56128     560.5847     540.6258   1426.56128     560.5847     540.6258
   1426.54602     564.3445     542.9935   1426.54602     564.3445     542.9935
   1426.53076     566.8179     544.2656   1426.53076     566.8179     544.2656
   1426.51550     570.5981     546.8465   1426.51550     570.5981     546.8465
   1426.50024     572.6140     549.0416   1426.50024     572.6140     549.0416
   1426.48499     575.1796     550.9990   1426.48499     575.1796     550.9990
   1426.46973     578.4916     553.5601   1426.46973     578.4916     553.5601
   1426.45447     581.7328     555.9714   1426.45447     581.7328     555.9714
   1426.43921     584.9209     557.7161   1426.43921     584.9209     557.7161
   1426.42395     587.5632     559.5903   1426.42395     587.5632     559.5903
   1426.40869     591.0780     561.1647   1426.40869     591.0780     561.1647
   1426.39343     594.2476     562.9523   1426.39343     594.2476     562.9523
   1426.37817     598.3073     566.3842   1426.37817     598.3073     566.3842
   1426.36292     600.9073     567.6608   1426.36292     600.9073     567.6608
   1426.34766     602.2700     569.5533   1426.34766     602.2700     569.5533
   1426.33240     606.6918     571.7197   1426.33240     606.6918     571.7197
   1426.31714     608.1777     573.0524   1426.31714     608.1777     573.0524
   1426.30188     611.6468     575.0419   1426.30188     611.6468     575.0419
   1426.28662     615.4064     577.5276   1426.28662     615.4064     577.5276
   1426.27136     617.6521     578.8269   1426.27136     617.6521     578.8269
   1426.25610     621.2161     581.3419   1426.25610     621.2161     581.3419
   1426.24084     623.8343     581.5809   1426.24084     623.8343     581.5809
   1426.22559     626.2838     584.0284   1426.22559     626.2838     584.0284
   1426.21033     630.3495     586.2653   1426.21033     630.3495     586.2653
   1426.19507     632.5520     586.7600   1426.19507     632.5520     586.7600
   1426.17981     635.6545     588.7284   1426.17981     635.6545     588.7284
   1426.16455     638.6539     590.1459   1426.16455     638.6539     590.1459
   1426.14929     641.1349     592.9460   1426.14929     641.1349     592.9460
   1426.13403     644.2887     593.2128   1426.13403     644.2887     593.2128
   1426.11877     646.3347     594.8242   1426.11877     646.3347     594.8242
   1426.10352     648.5414     596.2909   1426.10352     648.5414     596.2909
   1426.08826     651.4676     597.9177   1426.08826     651.4676     597.9177
   1426.07300     653.9288     598.7949   1426.07300     653.9288     598.7949
   1426.05774     656.6027     599.3700   1426.05774     656.6027     599.3700
   1426.04248     658.4091     601.8720   1426.04248     658.4091     601.8720
   1426.02722     661.6415     603.8610   1426.02722     661.6415     603.8610
   1426.01196     664.2515     604.4006   1426.01196     664.2515     604.4006
   1425.99670     667.0562     606.1793   1425.99670     667.0562     606.1793
   1425.98145     668.4461     606.8036   1425.98145     668.4461     606.8036
   1425.96619     670.7402     608.4888   1425.96619     670.7402     608.4888
   1425.95093     673.8612     609.5113   1425.95093     673.8612     609.5113
   1425.93567     674.4294     610.2186   1425.93567     674.4294     610.2186
   1425.92041     678.6340     612.5098   1425.92041     678.6340     612.5098
   1425.90515     681.9512     612.3574   1425.90515     681.9512     612.3574
   1425.88989     683.4131     613.9385   1425.88989     683.4131     613.9385
   1425.87463     685.0208     614.9034   1425.87463     685.0208     614.9034
   1425.85938     688.3221     615.6669   1425.85938     688.3221     615.6669
   1425.84412     689.2532     617.3888   1425.84412     689.2532     617.3888
   1425.82886     691.1309     618.1906   1425.82886     691.1309     618.1906
   1425.81360     695.0223     618.5585   1425.81360     695.0223     618.5585
   1425.79834     697.6229     619.8760   1425.79834     697.6229     619.8760
   1425.78308     698.2719     621.0707   1425.78308     698.2719     621.0707
   1425.76782     701.8995     620.3306   1425.76782     701.8995     620.3306
   1425.75256     702.4979     622.5260   1425.75256     702.4979     622.5260
   1425.73730     702.9793     621.8367   1425.73730     702.9793     621.8367
   1425.72205     705.5084     622.8163   1425.72205     705.5084     622.8163
   1425.70679     708.7634     623.5077   1425.70679     708.7634     623.5077
   1425.69153     710.4256     625.7868   1425.69153     710.4256     625.7868
   1425.67627     712.0920     624.6288   1425.67627     712.0920     624.6288
   1425.66101     713.8408     626.1161   1425.66101     713.8408     626.1161
   1425.64575     716.0416     627.0419   1425.64575     716.0416     627.0419
   1425.63049     718.3345     626.7576   1425.63049     718.3345     626.7576
   1425.61523     719.8910     628.4915   1425.61523     719.8910     628.4915
   1425.59998     720.8723     628.1559   1425.59998     720.8723     628.1559
   1425.58472     723.2762     628.8527   1425.58472     723.2762     628.8527
   1425.56946     724.5462     629.2284   1425.56946     724.5462     629.2284
   1425.55420     725.2602     630.2731   1425.55420     725.2602     630.2731
   1425.53894     726.9415     631.0604   1425.53894     726.9415     631.0604
   1425.52368     728.9219     632.0190   1425.52368     728.9219     632.0190
   1425.50842     729.5578     631.3449   1425.50842     729.5578     631.3449
   1425.49316     732.1588     631.6675   1425.49316     732.1588     631.6675
   1425.47791     733.4284     632.2972   1425.47791     733.4284     632.2972
   1425.46265     734.8322     632.5673   1425.46265     734.8322     632.5673
   1425.44739     737.0126     633.6057   1425.44739     737.0126     633.6057
   1425.43213     736.9525     633.5903   1425.43213     736.9525     633.5903
   1425.41687     739.9284     634.3380   1425.41687     739.9284     634.3380
   1425.40161     739.8578     634.3254   1425.40161     739.8578     634.3254
   1425.38635     741.7089     634.3552   1425.38635     741.7089     634.3552
   1425.37109     743.6278     633.6782   1425.37109     743.6278     633.6782
   1425.35583     743.5216     635.6176   1425.35583     743.5216     635.6176
   1425.34058     744.5319     635.0413   1425.34058     744.5319     635.0413
   1425.32532     746.0733     635.1201   1425.32532     746.0733     635.1201
   1425.31006     747.3099     634.9099   1425.31006     747.3099     634.9099
   1425.29480     747.3520     634.4285   1425.29480     747.3520     634.4285
   1425.27954     750.0788     635.5764   1425.27954     750.0788     635.5764
   1425.26428     751.1849     635.2393   1425.26428     751.1849     635.2393
   1425.24902     753.2035     635.8369   1425.24902     753.2035     635.8369
   1425.23376     752.6392     636.0448   1425.23376     752.6392     636.0448
   1425.21851     753.5256     636.3997   1425.21851     753.5256     636.3997
   1425.20325     754.7920     635.6070   1425.20325     754.7920     635.6070
   1425.18799     754.8820     635.6538   1425.18799     754.8820     635.6538
   1425.17273     755.7923     635.2272   1425.17273     755.7923     635.2272
   1425.15747     755.9945     635.5840   1425.15747     755.9945     635.5840
   1425.14221     756.2734     636.1371   1425.14221     756.2734     636.1371
   1425.12695     758.1973     636.3537   1425.12695     758.1973     636.3537
   1425.11169     758.9601     634.9669   1425.11169     758.9601     634.9669
   1425.09644     759.4135     636.1117   1425.09644     759.4135     636.1117
   1425.08118     759.4080     635.1159   1425.08118     759.4080     635.1159
   1425.06592     761.9774     635.4350   1425.06592     761.9774     635.4350
   1425.05066     760.5739     636.5922   1425.05066     760.5739     636.5922
   1425.03540     761.7526     635.8596   1425.03540     761.7526     635.8596
   1425.02014     761.2338     635.9105   1425.02014     761.2338     635.9105
   1425.00488     762.5573     635.7340   1425.00488     762.5573     635.7340
   1424.98962     763.8766     635.5540   1424.98962     763.8766     635.5540
   1424.97437     763.3036     635.0115   1424.97437     763.3036     635.0115
   1424.95911     766.0779     635.3901   1424.95911     766.0779     635.3901
   1424.94385     765.5286     634.8484   1424.94385     765.5286     634.8484
   1424.92859     765.1791     635.2929   1424.92859     765.1791     635.2929
   1424.91333     765.0247     634.2441   1424.91333     765.0247     634.2441
   1424.89807     766.5609     633.7651   1424.89807     766.5609     633.7651
   1424.88281     764.8293     633.5734   1424.88281     764.8293     633.5734
   1424.86755     766.3626     634.1277   1424.86755     766.3626     634.1277
   1424.85229     766.7939     633.8607   1424.85229     766.7939     633.8607
   1424.83704     767.3842     634.0388   1424.83704     767.3842     634.0388
   1424.82178     767.5333     632.7811   1424.82178     767.5333     632.7811
   1424.80652     767.2769     632.4528   1424.80652     767.2769     632.4528
   1424.79126     767.8404     632.3240   1424.79126     767.8404     632.3240
   1424.77600     767.3033     632.3488   1424.77600     767.3033     632.3488
   1424.76074     768.3572     630.7485   1424.76074     768.3572     630.7485
   1424.74548     767.7445     631.1948   1424.74548     767.7445     631.1948
   1424.73022     768.4856     631.6542   1424.73022     768.4856     631.6542
   1424.71497     767.0706     630.9656   1424.71497     767.0706     630.9656
   1424.69971     769.4508     631.0726   1424.69971     769.4508     631.0726
   1424.68445     768.1071     630.7169   1424.68445     768.1071     630.7169
   1424.66919     767.7747     629.7610   1424.66919     767.7747     629.7610
   1424.65393     769.8401     630.4573   1424.65393     769.8401     630.4573
   1424.63867     769.5219     630.2689   1424.63867     769.5219     630.2689
   1424.62341     767.8570     629.4009   1424.62341     767.8570     629.4009
   1424.60815     767.9286     629.3401   1424.60815     767.9286     629.3401
   1424.59290     769.6461     627.8560   1424.59290     769.6461     627.8560
   1424.57764     768.8345     627.9846   1424.57764     768.8345     627.9846
   1424.56238     768.9425     627.4413   1424.56238     768.9425     627.4413
   1424.54712     767.6818     627.0563   1424.54712     767.6818     627.0563
   1424.53186     768.5766     626.6587   1424.53186     768.5766     626.6587
   1424.51660     768.1543     626.5176   1424.51660     768.1543     626.5176
   1424.50134     767.8852     626.4321   1424.50134     767.8852     626.4321
   1424.48608     767.3841     626.1014   1424.48608     767.3841     626.1014
   1424.47083     766.5583     624.2902   1424.47083     766.5583     624.2902
   1424.45557     766.8065     624.8550   1424.45557     766.8065     624.8550
   1424.44031     767.3942     624.7340   1424.44031     767.3942     624.7340
   1424.42505     765.4398     622.7987   1424.42505     765.4398     622.7987
   1424.40979     766.9576     623.3541   1424.40979     766.9576     623.3541
   1424.39453     766.8480     623.0278   1424.39453     766.8480     623.0278
   1424.37927     766.7525     622.5712   1424.37927     766.7525     622.5712
   1424.36401     766.5530     621.4632   1424.36401     766.5530     621.4632
   1424.34875     765.9066     621.8809   1424.34875     765.9066     621.8809
   1424.33350     765.7961     621.5259   1424.33350     765.7961     621.5259
   1424.31824     766.1735     621.5292   1424.31824     766.1735     621.5292
   1424.30298     765.8108     620.3970   1424.30298     765.8108     620.3970
   1424.28772     765.5697     619.7177   1424.28772     765.5697     619.7177
   1424.27246     764.2642     619.0624   1424.27246     764.2642     619.0624
   1424.25720     764.2143     619.3275   1424.25720     764.2143     619.3275
   1424.24194     764.4105     618.2531   1424.24194     764.4105     618.2531
   1424.22668     763.8578     616.9130   1424.22668     763.8578     616.9130
   1424.21143     763.5247     616.8279   1424.21143     763.5247     616.8279
   1424.19617     762.4088     616.9642   1424.19617     762.4088     616.9642
   1424.18091     761.6851     617.5869   1424.18091     761.6851     617.5869
   1424.16565     762.7353     614.6709   1424.16565     762.7353     614.6709
