#     FILENAME=!Skynet_57535_lach-hhg-248-2_20901_21314.cyb.fits
#     BASENAME=Skynet_57535_lach-hhg-248-2_20901_21314
#     SRC_NAME=lach-hhg-248-2
#     OBSERVER=hhgmadison16_9500
#     DATE_OBS=2016-05-27T21:34:03.620
#        OBSID=20901
#      SCANNUM=21314
#          MJD=57535.8997
#          UTC=77733
#     SCANTYPE=track
#     DATAMODE=HIRES
#     TUNEFREQ=1420.0000
# Actual_FREQ1=1420.0000
# Actual_FREQ2=1420.0000
#    LO1Tuning=6870.000
#     RFFILTER=1355_1435
#        OBSBW=-15.6250
#        NCHAN=1024 
#        FOCUS=37.0709
#           RA=08:02:27.81
#          DEC=-30:45:14.53
#      RA(hrs)=8.041100
#     DEC(deg)=-30.754000
#    AZIM(deg)=187.508
#    ELEV(deg)=20.137
#     IFattens=10.00, 9.00
#      WARNING=None
#    TCAL_XL1=7.9635
#    TCAL_YR1=9.1340
#    TCAL_XL2=7.9635
#    TCAL_YR2=9.1340
#     TRX_XL1=11.7060
#     TRX_YR1=11.7060
#     TRX_XL2=11.7060
#     TRX_YR2=11.7060
#        TAVE=1.0000
#Freq1(MHz)          XL1          YR1  Freq2(MHz)          XL2          YR2 

   1427.81250     385.8387     244.4287   1427.81250     385.8387     244.4287
   1427.79724     386.2107     244.4772   1427.79724     386.2107     244.4772
   1427.78198     387.8805     245.1375   1427.78198     387.8805     245.1375
   1427.76672     388.2571     245.0286   1427.76672     388.2571     245.0286
   1427.75146     388.8214     245.8257   1427.75146     388.8214     245.8257
   1427.73621     390.2911     246.2122   1427.73621     390.2911     246.2122
   1427.72095     391.8400     246.5513   1427.72095     391.8400     246.5513
   1427.70569     392.2101     247.1202   1427.70569     392.2101     247.1202
   1427.69043     392.8611     248.1363   1427.69043     392.8611     248.1363
   1427.67517     394.2534     248.4865   1427.67517     394.2534     248.4865
   1427.65991     395.8819     248.8100   1427.65991     395.8819     248.8100
   1427.64465     395.9977     249.4896   1427.64465     395.9977     249.4896
   1427.62939     397.7635     250.1951   1427.62939     397.7635     250.1951
   1427.61414     398.8877     251.0635   1427.61414     398.8877     251.0635
   1427.59888     400.1488     251.6254   1427.59888     400.1488     251.6254
   1427.58362     401.9318     252.3175   1427.58362     401.9318     252.3175
   1427.56836     403.4700     253.3309   1427.56836     403.4700     253.3309
   1427.55310     404.8035     254.4107   1427.55310     404.8035     254.4107
   1427.53784     407.0446     255.1546   1427.53784     407.0446     255.1546
   1427.52258     407.6928     256.0400   1427.52258     407.6928     256.0400
   1427.50732     409.1858     256.8427   1427.50732     409.1858     256.8427
   1427.49207     411.4594     258.0848   1427.49207     411.4594     258.0848
   1427.47681     412.7016     258.9945   1427.47681     412.7016     258.9945
   1427.46155     414.9821     260.3201   1427.46155     414.9821     260.3201
   1427.44629     417.0057     261.1114   1427.44629     417.0057     261.1114
   1427.43103     418.5491     262.5777   1427.43103     418.5491     262.5777
   1427.41577     420.4474     263.3583   1427.41577     420.4474     263.3583
   1427.40051     422.4127     264.7208   1427.40051     422.4127     264.7208
   1427.38525     423.4566     265.7567   1427.38525     423.4566     265.7567
   1427.37000     426.8642     266.7816   1427.37000     426.8642     266.7816
   1427.35474     428.5950     268.4365   1427.35474     428.5950     268.4365
   1427.33948     430.2292     269.3028   1427.33948     430.2292     269.3028
   1427.32422     432.3808     271.2805   1427.32422     432.3808     271.2805
   1427.30896     434.7593     271.9828   1427.30896     434.7593     271.9828
   1427.29370     437.1213     274.0883   1427.29370     437.1213     274.0883
   1427.27844     439.1974     275.2163   1427.27844     439.1974     275.2163
   1427.26318     440.8498     276.5798   1427.26318     440.8498     276.5798
   1427.24792     443.4423     278.4437   1427.24792     443.4423     278.4437
   1427.23267     445.8983     279.5866   1427.23267     445.8983     279.5866
   1427.21741     448.1922     281.4854   1427.21741     448.1922     281.4854
   1427.20215     450.6518     282.5986   1427.20215     450.6518     282.5986
   1427.18689     453.2241     284.3984   1427.18689     453.2241     284.3984
   1427.17163     455.6418     286.2314   1427.17163     455.6418     286.2314
   1427.15637     457.8994     287.4313   1427.15637     457.8994     287.4313
   1427.14111     460.3994     289.3145   1427.14111     460.3994     289.3145
   1427.12585     462.1704     291.2469   1427.12585     462.1704     291.2469
   1427.11060     465.2999     292.7225   1427.11060     465.2999     292.7225
   1427.09534     468.4816     294.6604   1427.09534     468.4816     294.6604
   1427.08008     469.8416     295.9843   1427.08008     469.8416     295.9843
   1427.06482     473.6979     297.8882   1427.06482     473.6979     297.8882
   1427.04956     475.2869     299.9620   1427.04956     475.2869     299.9620
   1427.03430     477.9351     301.7451   1427.03430     477.9351     301.7451
   1427.01904     479.9852     303.1216   1427.01904     479.9852     303.1216
   1427.00378     483.8813     305.4312   1427.00378     483.8813     305.4312
   1426.98853     486.0680     306.8222   1426.98853     486.0680     306.8222
   1426.97327     489.3255     308.6970   1426.97327     489.3255     308.6970
   1426.95801     491.8410     310.4130   1426.95801     491.8410     310.4130
   1426.94275     493.9961     312.6800   1426.94275     493.9961     312.6800
   1426.92749     497.1800     314.5209   1426.92749     497.1800     314.5209
   1426.91223     499.9585     316.6280   1426.91223     499.9585     316.6280
   1426.89697     502.4757     318.4252   1426.89697     502.4757     318.4252
   1426.88171     505.4987     320.3596   1426.88171     505.4987     320.3596
   1426.86646     508.4885     322.1420   1426.86646     508.4885     322.1420
   1426.85120     511.0544     324.4823   1426.85120     511.0544     324.4823
   1426.83594     513.0585     326.9648   1426.83594     513.0585     326.9648
   1426.82068     516.5102     328.6760   1426.82068     516.5102     328.6760
   1426.80542     518.6226     330.4233   1426.80542     518.6226     330.4233
   1426.79016     522.1517     333.3723   1426.79016     522.1517     333.3723
   1426.77490     524.2589     334.5555   1426.77490     524.2589     334.5555
   1426.75964     527.8885     336.6603   1426.75964     527.8885     336.6603
   1426.74438     530.5112     338.3757   1426.74438     530.5112     338.3757
   1426.72913     533.7692     340.9326   1426.72913     533.7692     340.9326
   1426.71387     536.3184     342.9507   1426.71387     536.3184     342.9507
   1426.69861     540.4917     345.2834   1426.69861     540.4917     345.2834
   1426.68335     542.9210     346.4746   1426.68335     542.9210     346.4746
   1426.66809     545.2957     348.9529   1426.66809     545.2957     348.9529
   1426.65283     547.7140     350.7805   1426.65283     547.7140     350.7805
   1426.63757     550.3741     353.1223   1426.63757     550.3741     353.1223
   1426.62231     554.2844     355.5434   1426.62231     554.2844     355.5434
   1426.60706     557.0232     357.7656   1426.60706     557.0232     357.7656
   1426.59180     559.8437     359.6656   1426.59180     559.8437     359.6656
   1426.57654     562.8029     361.6376   1426.57654     562.8029     361.6376
   1426.56128     564.8488     363.9134   1426.56128     564.8488     363.9134
   1426.54602     568.2171     365.6334   1426.54602     568.2171     365.6334
   1426.53076     570.3640     367.9450   1426.53076     570.3640     367.9450
   1426.51550     573.5123     370.2495   1426.51550     573.5123     370.2495
   1426.50024     577.2658     371.9637   1426.50024     577.2658     371.9637
   1426.48499     578.5341     374.8307   1426.48499     578.5341     374.8307
   1426.46973     581.6527     376.7052   1426.46973     581.6527     376.7052
   1426.45447     584.7230     378.9669   1426.45447     584.7230     378.9669
   1426.43921     587.4196     380.5534   1426.43921     587.4196     380.5534
   1426.42395     589.7184     382.6990   1426.42395     589.7184     382.6990
   1426.40869     593.7084     385.0263   1426.40869     593.7084     385.0263
   1426.39343     595.9800     386.5606   1426.39343     595.9800     386.5606
   1426.37817     597.6473     388.6961   1426.37817     597.6473     388.6961
   1426.36292     601.1566     390.6709   1426.36292     601.1566     390.6709
   1426.34766     603.9835     393.3267   1426.34766     603.9835     393.3267
   1426.33240     606.8395     395.0664   1426.33240     606.8395     395.0664
   1426.31714     609.4214     397.1438   1426.31714     609.4214     397.1438
   1426.30188     611.8914     399.6440   1426.30188     611.8914     399.6440
   1426.28662     613.7408     401.0777   1426.28662     613.7408     401.0777
   1426.27136     617.2762     403.2766   1426.27136     617.2762     403.2766
   1426.25610     618.3679     404.7323   1426.25610     618.3679     404.7323
   1426.24084     621.0320     406.7415   1426.24084     621.0320     406.7415
   1426.22559     624.3846     410.1147   1426.22559     624.3846     410.1147
   1426.21033     626.3771     411.0483   1426.21033     626.3771     411.0483
   1426.19507     629.2343     412.9128   1426.19507     629.2343     412.9128
   1426.17981     632.1092     415.4708   1426.17981     632.1092     415.4708
   1426.16455     634.2429     417.4254   1426.16455     634.2429     417.4254
   1426.14929     637.7515     419.2450   1426.14929     637.7515     419.2450
   1426.13403     639.8441     421.2101   1426.13403     639.8441     421.2101
   1426.11877     643.0143     423.0052   1426.11877     643.0143     423.0052
   1426.10352     644.2841     424.4417   1426.10352     644.2841     424.4417
   1426.08826     646.6730     427.3376   1426.08826     646.6730     427.3376
   1426.07300     648.0250     428.7677   1426.07300     648.0250     428.7677
   1426.05774     650.9424     430.0439   1426.05774     650.9424     430.0439
   1426.04248     653.7704     431.9752   1426.04248     653.7704     431.9752
   1426.02722     656.1464     434.7604   1426.02722     656.1464     434.7604
   1426.01196     658.3802     435.8557   1426.01196     658.3802     435.8557
   1425.99670     659.5856     438.3230   1425.99670     659.5856     438.3230
   1425.98145     663.0738     440.1675   1425.98145     663.0738     440.1675
   1425.96619     664.6522     441.5105   1425.96619     664.6522     441.5105
   1425.95093     667.2990     443.1599   1425.95093     667.2990     443.1599
   1425.93567     669.3848     444.3339   1425.93567     669.3848     444.3339
   1425.92041     671.4846     446.2987   1425.92041     671.4846     446.2987
   1425.90515     673.5163     448.0595   1425.90515     673.5163     448.0595
   1425.88989     674.7175     450.4581   1425.88989     674.7175     450.4581
   1425.87463     676.5118     451.4113   1425.87463     676.5118     451.4113
   1425.85938     680.3594     453.2325   1425.85938     680.3594     453.2325
   1425.84412     680.9595     455.0613   1425.84412     680.9595     455.0613
   1425.82886     683.3918     456.6799   1425.82886     683.3918     456.6799
   1425.81360     685.7499     457.7684   1425.81360     685.7499     457.7684
   1425.79834     686.9651     460.1885   1425.79834     686.9651     460.1885
   1425.78308     689.4587     461.2808   1425.78308     689.4587     461.2808
   1425.76782     690.8808     462.3503   1425.76782     690.8808     462.3503
   1425.75256     691.8308     464.0675   1425.75256     691.8308     464.0675
   1425.73730     694.0496     465.4978   1425.73730     694.0496     465.4978
   1425.72205     695.6188     467.5853   1425.72205     695.6188     467.5853
   1425.70679     699.1248     469.1039   1425.70679     699.1248     469.1039
   1425.69153     698.9894     469.9901   1425.69153     698.9894     469.9901
   1425.67627     702.1904     472.2128   1425.67627     702.1904     472.2128
   1425.66101     702.3605     472.6894   1425.66101     702.3605     472.6894
   1425.64575     705.1145     474.8138   1425.64575     705.1145     474.8138
   1425.63049     707.0605     476.2820   1425.63049     707.0605     476.2820
   1425.61523     708.4661     476.5591   1425.61523     708.4661     476.5591
   1425.59998     709.4753     479.1805   1425.59998     709.4753     479.1805
   1425.58472     710.8301     480.3340   1425.58472     710.8301     480.3340
   1425.56946     712.1436     481.8918   1425.56946     712.1436     481.8918
   1425.55420     713.2271     483.4162   1425.55420     713.2271     483.4162
   1425.53894     714.2491     484.5339   1425.53894     714.2491     484.5339
   1425.52368     717.1557     485.3868   1425.52368     717.1557     485.3868
   1425.50842     718.7872     486.1106   1425.50842     718.7872     486.1106
   1425.49316     719.5788     488.0204   1425.49316     719.5788     488.0204
   1425.47791     721.7151     489.8079   1425.47791     721.7151     489.8079
   1425.46265     721.7828     490.5336   1425.46265     721.7828     490.5336
   1425.44739     722.1742     491.9923   1425.44739     722.1742     491.9923
   1425.43213     724.3362     493.6121   1425.43213     724.3362     493.6121
   1425.41687     726.2856     494.1136   1425.41687     726.2856     494.1136
   1425.40161     728.0487     495.5091   1425.40161     728.0487     495.5091
   1425.38635     728.3004     496.5018   1425.38635     728.3004     496.5018
   1425.37109     728.5878     497.8385   1425.37109     728.5878     497.8385
   1425.35583     730.6613     498.7664   1425.35583     730.6613     498.7664
   1425.34058     732.2919     500.1895   1425.34058     732.2919     500.1895
   1425.32532     731.8108     501.2751   1425.32532     731.8108     501.2751
   1425.31006     733.1616     502.3285   1425.31006     733.1616     502.3285
   1425.29480     734.2485     503.5023   1425.29480     734.2485     503.5023
   1425.27954     735.3708     504.8223   1425.27954     735.3708     504.8223
   1425.26428     736.3218     504.8998   1425.26428     736.3218     504.8998
   1425.24902     737.9012     507.1473   1425.24902     737.9012     507.1473
   1425.23376     739.0857     507.9276   1425.23376     739.0857     507.9276
   1425.21851     738.8985     508.9805   1425.21851     738.8985     508.9805
   1425.20325     739.9236     510.2434   1425.20325     739.9236     510.2434
   1425.18799     740.7124     510.9124   1425.18799     740.7124     510.9124
   1425.17273     740.6241     511.3877   1425.17273     740.6241     511.3877
   1425.15747     742.7129     513.6435   1425.15747     742.7129     513.6435
   1425.14221     743.2890     514.1378   1425.14221     743.2890     514.1378
   1425.12695     744.3340     514.1562   1425.12695     744.3340     514.1562
   1425.11169     745.2214     516.4235   1425.11169     745.2214     516.4235
   1425.09644     745.5688     516.8737   1425.09644     745.5688     516.8737
   1425.08118     746.4932     517.4139   1425.08118     746.4932     517.4139
   1425.06592     746.4001     518.8121   1425.06592     746.4001     518.8121
   1425.05066     746.3818     519.3796   1425.05066     746.3818     519.3796
   1425.03540     749.0044     519.9575   1425.03540     749.0044     519.9575
   1425.02014     748.2599     520.9317   1425.02014     748.2599     520.9317
   1425.00488     749.8433     522.8853   1425.00488     749.8433     522.8853
   1424.98962     750.4085     522.4284   1424.98962     750.4085     522.4284
   1424.97437     750.4738     524.2011   1424.97437     750.4738     524.2011
   1424.95911     751.5258     525.2551   1424.95911     751.5258     525.2551
   1424.94385     751.7756     526.7928   1424.94385     751.7756     526.7928
   1424.92859     750.7472     526.2641   1424.92859     750.7472     526.2641
   1424.91333     751.1118     527.0632   1424.91333     751.1118     527.0632
   1424.89807     752.5912     528.0504   1424.89807     752.5912     528.0504
   1424.88281     754.3201     528.1737   1424.88281     754.3201     528.1737
   1424.86755     754.4282     529.9417   1424.86755     754.4282     529.9417
   1424.85229     753.9849     530.3926   1424.85229     753.9849     530.3926
   1424.83704     755.1526     531.4417   1424.83704     755.1526     531.4417
   1424.82178     755.0528     532.2650   1424.82178     755.0528     532.2650
   1424.80652     755.8605     531.8703   1424.80652     755.8605     531.8703
   1424.79126     755.1802     533.2007   1424.79126     755.1802     533.2007
   1424.77600     755.2656     533.7438   1424.77600     755.2656     533.7438
   1424.76074     757.0992     533.6331   1424.76074     757.0992     533.6331
   1424.74548     757.1979     534.6353   1424.74548     757.1979     534.6353
   1424.73022     755.1542     535.5483   1424.73022     755.1542     535.5483
   1424.71497     758.0236     537.2245   1424.71497     758.0236     537.2245
   1424.69971     757.1539     536.4315   1424.69971     757.1539     536.4315
   1424.68445     756.0106     537.8782   1424.68445     756.0106     537.8782
   1424.66919     757.5361     539.5301   1424.66919     757.5361     539.5301
   1424.65393     758.6605     539.8072   1424.65393     758.6605     539.8072
   1424.63867     757.1106     539.2980   1424.63867     757.1106     539.2980
   1424.62341     758.2282     540.9389   1424.62341     758.2282     540.9389
   1424.60815     757.3065     541.0895   1424.60815     757.3065     541.0895
   1424.59290     758.5897     541.2204   1424.59290     758.5897     541.2204
   1424.57764     757.8072     542.0419   1424.57764     757.8072     542.0419
   1424.56238     758.8945     543.2731   1424.56238     758.8945     543.2731
   1424.54712     759.8083     543.3327   1424.54712     759.8083     543.3327
   1424.53186     757.5950     544.2821   1424.53186     757.5950     544.2821
   1424.51660     758.6060     544.7661   1424.51660     758.6060     544.7661
   1424.50134     759.5899     545.0084   1424.50134     759.5899     545.0084
   1424.48608     759.2372     546.8470   1424.48608     759.2372     546.8470
   1424.47083     760.3671     545.7268   1424.47083     760.3671     545.7268
   1424.45557     758.6104     547.5368   1424.45557     758.6104     547.5368
   1424.44031     758.7350     547.9104   1424.44031     758.7350     547.9104
   1424.42505     759.4037     548.0908   1424.42505     759.4037     548.0908
   1424.40979     759.2286     548.3824   1424.40979     759.2286     548.3824
   1424.39453     759.2462     550.2501   1424.39453     759.2462     550.2501
   1424.37927     760.4609     548.5706   1424.37927     760.4609     548.5706
   1424.36401     759.2433     549.8712   1424.36401     759.2433     549.8712
   1424.34875     759.2031     550.5142   1424.34875     759.2031     550.5142
   1424.33350     758.9600     551.3485   1424.33350     758.9600     551.3485
   1424.31824     759.6864     551.8667   1424.31824     759.6864     551.8667
   1424.30298     760.1703     552.7932   1424.30298     760.1703     552.7932
   1424.28772     760.9844     552.3867   1424.28772     760.9844     552.3867
   1424.27246     760.3194     553.4987   1424.27246     760.3194     553.4987
   1424.25720     760.2262     552.7463   1424.25720     760.2262     552.7463
   1424.24194     758.1392     554.2865   1424.24194     758.1392     554.2865
   1424.22668     759.6440     553.8701   1424.22668     759.6440     553.8701
   1424.21143     758.8525     554.3376   1424.21143     758.8525     554.3376
   1424.19617     758.8926     555.5405   1424.19617     758.8926     555.5405
   1424.18091     759.9260     555.8021   1424.18091     759.9260     555.8021
   1424.16565     760.3259     555.2762   1424.16565     760.3259     555.2762
