#     FILENAME=!Skynet_57528_lach-hhg-151_20496_20975.cyb.fits
#     BASENAME=Skynet_57528_lach-hhg-151_20496_20975
#     SRC_NAME=lach-hhg-151
#     OBSERVER=hhgmadison16_9500
#     DATE_OBS=2016-05-20T17:39:33.430
#        OBSID=20496
#      SCANNUM=20975
#          MJD=57528.7368
#          UTC=63662
#     SCANTYPE=track
#     DATAMODE=HIRES
#     TUNEFREQ=1420.0000
# Actual_FREQ1=1420.0000
# Actual_FREQ2=1420.0000
#    LO1Tuning=6870.000
#     RFFILTER=1355_1435
#        OBSBW=-15.6250
#        NCHAN=1024 
#        FOCUS=37.0709
#           RA=04:09:16.51
#          DEC=51:44:59.34
#      RA(hrs)=4.154800
#     DEC(deg)=51.750100
#    AZIM(deg)=356.240
#    ELEV(deg)=76.543
#     IFattens=10.00, 9.00
#      WARNING=None
#    TCAL_XL1=7.9635
#    TCAL_YR1=9.1340
#    TCAL_XL2=7.9635
#    TCAL_YR2=9.1340
#     TRX_XL1=11.7060
#     TRX_YR1=11.7060
#     TRX_XL2=11.7060
#     TRX_YR2=11.7060
#        TAVE=1.0000
#Freq1(MHz)          XL1          YR1  Freq2(MHz)          XL2          YR2 

   1427.81250     381.9528     337.0521   1427.81250     381.9528     337.0521
   1427.79724     383.0781     338.8784   1427.79724     383.0781     338.8784
   1427.78198     382.6325     339.8809   1427.78198     382.6325     339.8809
   1427.76672     384.1810     341.4393   1427.76672     384.1810     341.4393
   1427.75146     384.3636     342.8843   1427.75146     384.3636     342.8843
   1427.73621     385.3474     344.1663   1427.73621     385.3474     344.1663
   1427.72095     386.3973     345.5348   1427.72095     386.3973     345.5348
   1427.70569     387.6029     347.6318   1427.70569     387.6029     347.6318
   1427.69043     388.3835     348.8333   1427.69043     388.3835     348.8333
   1427.67517     389.0858     350.3053   1427.67517     389.0858     350.3053
   1427.65991     390.8640     352.5924   1427.65991     390.8640     352.5924
   1427.64465     392.3844     353.8480   1427.64465     392.3844     353.8480
   1427.62939     392.9151     355.5774   1427.62939     392.9151     355.5774
   1427.61414     395.1293     357.8725   1427.61414     395.1293     357.8725
   1427.59888     395.6438     359.4604   1427.59888     395.6438     359.4604
   1427.58362     397.2288     361.3299   1427.58362     397.2288     361.3299
   1427.56836     397.8059     363.1347   1427.56836     397.8059     363.1347
   1427.55310     399.7575     365.2215   1427.55310     399.7575     365.2215
   1427.53784     402.6839     367.7316   1427.53784     402.6839     367.7316
   1427.52258     403.8173     369.0905   1427.52258     403.8173     369.0905
   1427.50732     406.0351     371.3253   1427.50732     406.0351     371.3253
   1427.49207     406.7703     373.7086   1427.49207     406.7703     373.7086
   1427.47681     408.5890     375.3095   1427.47681     408.5890     375.3095
   1427.46155     410.0131     376.8296   1427.46155     410.0131     376.8296
   1427.44629     412.9426     379.4258   1427.44629     412.9426     379.4258
   1427.43103     414.2595     381.4258   1427.43103     414.2595     381.4258
   1427.41577     415.8937     383.5594   1427.41577     415.8937     383.5594
   1427.40051     418.0090     385.6266   1427.40051     418.0090     385.6266
   1427.38525     419.6699     387.9218   1427.38525     419.6699     387.9218
   1427.37000     422.0462     390.3419   1427.37000     422.0462     390.3419
   1427.35474     425.3609     392.3877   1427.35474     425.3609     392.3877
   1427.33948     426.4342     394.4547   1427.33948     426.4342     394.4547
   1427.32422     428.1919     396.5038   1427.32422     428.1919     396.5038
   1427.30896     430.8474     399.0712   1427.30896     430.8474     399.0712
   1427.29370     433.3785     401.5729   1427.29370     433.3785     401.5729
   1427.27844     435.2928     404.1552   1427.27844     435.2928     404.1552
   1427.26318     438.2890     405.9105   1427.26318     438.2890     405.9105
   1427.24792     439.7867     408.5240   1427.24792     439.7867     408.5240
   1427.23267     442.9943     411.1228   1427.23267     442.9943     411.1228
   1427.21741     444.8799     413.1647   1427.21741     444.8799     413.1647
   1427.20215     447.6178     414.9622   1427.20215     447.6178     414.9622
   1427.18689     450.1032     416.5625   1427.18689     450.1032     416.5625
   1427.17163     452.6487     420.4011   1427.17163     452.6487     420.4011
   1427.15637     454.9181     422.2884   1427.15637     454.9181     422.2884
   1427.14111     458.0569     425.0616   1427.14111     458.0569     425.0616
   1427.12585     459.9651     426.3675   1427.12585     459.9651     426.3675
   1427.11060     463.5367     429.2714   1427.11060     463.5367     429.2714
   1427.09534     466.1606     431.6308   1427.09534     466.1606     431.6308
   1427.08008     468.9961     434.4039   1427.08008     468.9961     434.4039
   1427.06482     471.8574     436.4019   1427.06482     471.8574     436.4019
   1427.04956     474.3183     439.2401   1427.04956     474.3183     439.2401
   1427.03430     477.1480     441.0888   1427.03430     477.1480     441.0888
   1427.01904     480.4055     443.9380   1427.01904     480.4055     443.9380
   1427.00378     483.5134     445.9254   1427.00378     483.5134     445.9254
   1426.98853     486.4120     447.7937   1426.98853     486.4120     447.7937
   1426.97327     488.8899     451.0534   1426.97327     488.8899     451.0534
   1426.95801     492.2004     452.9887   1426.95801     492.2004     452.9887
   1426.94275     494.4181     454.8732   1426.94275     494.4181     454.8732
   1426.92749     497.6537     457.8764   1426.92749     497.6537     457.8764
   1426.91223     500.2819     459.8883   1426.91223     500.2819     459.8883
   1426.89697     504.5602     461.9131   1426.89697     504.5602     461.9131
   1426.88171     506.6619     464.7453   1426.88171     506.6619     464.7453
   1426.86646     509.4824     466.8844   1426.86646     509.4824     466.8844
   1426.85120     512.8845     468.8043   1426.85120     512.8845     468.8043
   1426.83594     515.8265     472.0574   1426.83594     515.8265     472.0574
   1426.82068     519.2327     472.9829   1426.82068     519.2327     472.9829
   1426.80542     522.6277     475.8754   1426.80542     522.6277     475.8754
   1426.79016     525.7953     478.1740   1426.79016     525.7953     478.1740
   1426.77490     528.5299     480.1038   1426.77490     528.5299     480.1038
   1426.75964     531.4172     482.3491   1426.75964     531.4172     482.3491
   1426.74438     535.2387     485.0984   1426.74438     535.2387     485.0984
   1426.72913     537.0642     487.1479   1426.72913     537.0642     487.1479
   1426.71387     541.6835     489.3690   1426.71387     541.6835     489.3690
   1426.69861     544.6467     491.3879   1426.69861     544.6467     491.3879
   1426.68335     547.8391     493.4612   1426.68335     547.8391     493.4612
   1426.66809     551.0040     495.5560   1426.66809     551.0040     495.5560
   1426.65283     553.0785     498.0057   1426.65283     553.0785     498.0057
   1426.63757     556.6190     500.0254   1426.63757     556.6190     500.0254
   1426.62231     561.5137     512.8364   1426.62231     561.5137     512.8364
   1426.60706     563.2355     505.3583   1426.60706     563.2355     505.3583
   1426.59180     566.0659     506.5101   1426.59180     566.0659     506.5101
   1426.57654     569.9791     508.2660   1426.57654     569.9791     508.2660
   1426.56128     572.7614     510.3726   1426.56128     572.7614     510.3726
   1426.54602     575.5654     512.4494   1426.54602     575.5654     512.4494
   1426.53076     579.2176     513.6482   1426.53076     579.2176     513.6482
   1426.51550     581.9361     515.2207   1426.51550     581.9361     515.2207
   1426.50024     585.6263     517.6270   1426.50024     585.6263     517.6270
   1426.48499     587.9888     520.3546   1426.48499     587.9888     520.3546
   1426.46973     591.5986     521.2676   1426.46973     591.5986     521.2676
   1426.45447     595.5699     524.3256   1426.45447     595.5699     524.3256
   1426.43921     597.3774     524.5222   1426.43921     597.3774     524.5222
   1426.42395     601.1031     526.8997   1426.42395     601.1031     526.8997
   1426.40869     605.2089     528.2716   1426.40869     605.2089     528.2716
   1426.39343     606.9725     530.1302   1426.39343     606.9725     530.1302
   1426.37817     610.7100     532.3853   1426.37817     610.7100     532.3853
   1426.36292     613.4317     533.9260   1426.36292     613.4317     533.9260
   1426.34766     616.9814     536.0425   1426.34766     616.9814     536.0425
   1426.33240     620.5735     537.5732   1426.33240     620.5735     537.5732
   1426.31714     622.2432     539.4144   1426.31714     622.2432     539.4144
   1426.30188     624.4983     541.0486   1426.30188     624.4983     541.0486
   1426.28662     629.1984     542.4275   1426.28662     629.1984     542.4275
   1426.27136     631.2857     544.3819   1426.27136     631.2857     544.3819
   1426.25610     634.8962     545.6541   1426.25610     634.8962     545.6541
   1426.24084     637.7262     546.9930   1426.24084     637.7262     546.9930
   1426.22559     640.3073     549.5038   1426.22559     640.3073     549.5038
   1426.21033     642.8596     550.2536   1426.21033     642.8596     550.2536
   1426.19507     645.2119     552.1661   1426.19507     645.2119     552.1661
   1426.17981     648.7764     553.3386   1426.17981     648.7764     553.3386
   1426.16455     651.9152     554.6898   1426.16455     651.9152     554.6898
   1426.14929     654.6990     556.4794   1426.14929     654.6990     556.4794
   1426.13403     658.2897     556.2952   1426.13403     658.2897     556.2952
   1426.11877     660.9268     559.0859   1426.11877     660.9268     559.0859
   1426.10352     662.5010     560.0712   1426.10352     662.5010     560.0712
   1426.08826     665.3726     562.1985   1426.08826     665.3726     562.1985
   1426.07300     668.4011     562.8900   1426.07300     668.4011     562.8900
   1426.05774     670.7349     564.3179   1426.05774     670.7349     564.3179
   1426.04248     672.8505     566.1342   1426.04248     672.8505     566.1342
   1426.02722     676.2481     567.2031   1426.02722     676.2481     567.2031
   1426.01196     678.6967     567.7334   1426.01196     678.6967     567.7334
   1425.99670     681.8469     569.7836   1425.99670     681.8469     569.7836
   1425.98145     685.2521     570.7712   1425.98145     685.2521     570.7712
   1425.96619     686.1485     571.5143   1425.96619     686.1485     571.5143
   1425.95093     688.9012     572.6980   1425.95093     688.9012     572.6980
   1425.93567     691.6864     575.2477   1425.93567     691.6864     575.2477
   1425.92041     693.7665     575.9109   1425.92041     693.7665     575.9109
   1425.90515     695.3925     577.2802   1425.90515     695.3925     577.2802
   1425.88989     698.4071     577.6802   1425.88989     698.4071     577.6802
   1425.87463     700.4818     578.9903   1425.87463     700.4818     578.9903
   1425.85938     703.4288     579.3692   1425.85938     703.4288     579.3692
   1425.84412     705.4699     580.1818   1425.84412     705.4699     580.1818
   1425.82886     707.5396     580.3781   1425.82886     707.5396     580.3781
   1425.81360     709.7516     583.3255   1425.81360     709.7516     583.3255
   1425.79834     712.5468     584.1309   1425.79834     712.5468     584.1309
   1425.78308     714.0359     585.2098   1425.78308     714.0359     585.2098
   1425.76782     716.1686     585.3231   1425.76782     716.1686     585.3231
   1425.75256     718.0118     586.5935   1425.75256     718.0118     586.5935
   1425.73730     720.9501     587.2667   1425.73730     720.9501     587.2667
   1425.72205     722.7616     588.9374   1425.72205     722.7616     588.9374
   1425.70679     724.2079     589.5199   1425.70679     724.2079     589.5199
   1425.69153     726.5247     589.6017   1425.69153     726.5247     589.6017
   1425.67627     728.5997     590.0083   1425.67627     728.5997     590.0083
   1425.66101     729.6931     591.6385   1425.66101     729.6931     591.6385
   1425.64575     731.5015     592.1413   1425.64575     731.5015     592.1413
   1425.63049     733.1910     593.1273   1425.63049     733.1910     593.1273
   1425.61523     735.5668     594.2286   1425.61523     735.5668     594.2286
   1425.59998     737.5564     595.5479   1425.59998     737.5564     595.5479
   1425.58472     739.3942     596.2291   1425.58472     739.3942     596.2291
   1425.56946     739.3076     595.9418   1425.56946     739.3076     595.9418
   1425.55420     741.1143     597.2502   1425.55420     741.1143     597.2502
   1425.53894     743.7784     598.0749   1425.53894     743.7784     598.0749
   1425.52368     745.3766     598.1084   1425.52368     745.3766     598.1084
   1425.50842     747.4894     598.9612   1425.50842     747.4894     598.9612
   1425.49316     748.1908     599.7971   1425.49316     748.1908     599.7971
   1425.47791     750.7514     599.6037   1425.47791     750.7514     599.6037
   1425.46265     751.4375     600.5847   1425.46265     751.4375     600.5847
   1425.44739     752.5837     601.6730   1425.44739     752.5837     601.6730
   1425.43213     755.1946     601.8961   1425.43213     755.1946     601.8961
   1425.41687     755.9590     602.9608   1425.41687     755.9590     602.9608
   1425.40161     758.5736     602.6638   1425.40161     758.5736     602.6638
   1425.38635     758.1544     603.9288   1425.38635     758.1544     603.9288
   1425.37109     760.3694     604.2422   1425.37109     760.3694     604.2422
   1425.35583     759.8593     604.8046   1425.35583     759.8593     604.8046
   1425.34058     761.5720     605.0504   1425.34058     761.5720     605.0504
   1425.32532     763.0281     605.0940   1425.32532     763.0281     605.0940
   1425.31006     763.2361     606.4879   1425.31006     763.2361     606.4879
   1425.29480     765.4706     605.8196   1425.29480     765.4706     605.8196
   1425.27954     765.5693     606.9890   1425.27954     765.5693     606.9890
   1425.26428     766.9788     607.1785   1425.26428     766.9788     607.1785
   1425.24902     767.2035     607.8685   1425.24902     767.2035     607.8685
   1425.23376     768.0363     607.7860   1425.23376     768.0363     607.7860
   1425.21851     768.4895     608.2997   1425.21851     768.4895     608.2997
   1425.20325     771.5060     608.4018   1425.20325     771.5060     608.4018
   1425.18799     770.2714     608.8494   1425.18799     770.2714     608.8494
   1425.17273     771.9095     608.6487   1425.17273     771.9095     608.6487
   1425.15747     773.1191     610.5527   1425.15747     773.1191     610.5527
   1425.14221     773.9055     610.5055   1425.14221     773.9055     610.5055
   1425.12695     773.0991     611.2222   1425.12695     773.0991     611.2222
   1425.11169     774.0485     611.1541   1425.11169     774.0485     611.1541
   1425.09644     776.1631     610.3923   1425.09644     776.1631     610.3923
   1425.08118     776.7179     611.0310   1425.08118     776.7179     611.0310
   1425.06592     776.9208     611.8057   1425.06592     776.9208     611.8057
   1425.05066     777.2856     611.7387   1425.05066     777.2856     611.7387
   1425.03540     778.5995     611.9993   1425.03540     778.5995     611.9993
   1425.02014     778.6533     612.0736   1425.02014     778.6533     612.0736
   1425.00488     779.5663     612.3077   1425.00488     779.5663     612.3077
   1424.98962     779.5915     612.8908   1424.98962     779.5915     612.8908
   1424.97437     780.0905     612.4066   1424.97437     780.0905     612.4066
   1424.95911     779.3764     612.4610   1424.95911     779.3764     612.4610
   1424.94385     780.9075     612.6431   1424.94385     780.9075     612.6431
   1424.92859     781.1863     613.9349   1424.92859     781.1863     613.9349
   1424.91333     781.7150     613.2469   1424.91333     781.7150     613.2469
   1424.89807     782.0699     612.5667   1424.89807     782.0699     612.5667
   1424.88281     782.9777     613.9475   1424.88281     782.9777     613.9475
   1424.86755     782.6009     614.0613   1424.86755     782.6009     614.0613
   1424.85229     782.3375     613.4031   1424.85229     782.3375     613.4031
   1424.83704     783.3969     614.7559   1424.83704     783.3969     614.7559
   1424.82178     782.3602     613.3234   1424.82178     782.3602     613.3234
   1424.80652     782.7021     614.7013   1424.80652     782.7021     614.7013
   1424.79126     784.5648     613.8841   1424.79126     784.5648     613.8841
   1424.77600     782.4465     613.3439   1424.77600     782.4465     613.3439
   1424.76074     782.5862     613.6865   1424.76074     782.5862     613.6865
   1424.74548     782.8108     614.1374   1424.74548     782.8108     614.1374
   1424.73022     783.6434     614.0979   1424.73022     783.6434     614.0979
   1424.71497     783.8024     613.8625   1424.71497     783.8024     613.8625
   1424.69971     784.0002     613.7506   1424.69971     784.0002     613.7506
   1424.68445     785.5723     613.6382   1424.68445     785.5723     613.6382
   1424.66919     783.1345     613.4466   1424.66919     783.1345     613.4466
   1424.65393     782.4391     613.1630   1424.65393     782.4391     613.1630
   1424.63867     782.9454     613.1959   1424.63867     782.9454     613.1959
   1424.62341     784.1259     614.7849   1424.62341     784.1259     614.7849
   1424.60815     783.8701     612.6907   1424.60815     783.8701     612.6907
   1424.59290     784.5007     614.4858   1424.59290     784.5007     614.4858
   1424.57764     783.0596     613.2671   1424.57764     783.0596     613.2671
   1424.56238     783.4012     612.8398   1424.56238     783.4012     612.8398
   1424.54712     782.6807     613.9472   1424.54712     782.6807     613.9472
   1424.53186     782.1055     612.6019   1424.53186     782.1055     612.6019
   1424.51660     782.6113     612.9577   1424.51660     782.6113     612.9577
   1424.50134     781.3038     612.3615   1424.50134     781.3038     612.3615
   1424.48608     781.2364     612.6874   1424.48608     781.2364     612.6874
   1424.47083     780.6064     612.9374   1424.47083     780.6064     612.9374
   1424.45557     780.6751     612.2028   1424.45557     780.6751     612.2028
   1424.44031     780.2601     612.7977   1424.44031     780.2601     612.7977
   1424.42505     781.0148     612.4133   1424.42505     781.0148     612.4133
   1424.40979     780.1119     611.9788   1424.40979     780.1119     611.9788
   1424.39453     781.3441     611.1041   1424.39453     781.3441     611.1041
   1424.37927     779.8316     611.2760   1424.37927     779.8316     611.2760
   1424.36401     779.8445     611.9418   1424.36401     779.8445     611.9418
   1424.34875     778.9557     612.0032   1424.34875     778.9557     612.0032
   1424.33350     778.3106     610.0291   1424.33350     778.3106     610.0291
   1424.31824     778.8900     611.0536   1424.31824     778.8900     611.0536
   1424.30298     778.3503     610.8743   1424.30298     778.3503     610.8743
   1424.28772     778.1239     610.9762   1424.28772     778.1239     610.9762
   1424.27246     776.0829     609.8370   1424.27246     776.0829     609.8370
   1424.25720     776.4571     610.5327   1424.25720     776.4571     610.5327
   1424.24194     776.2523     610.5770   1424.24194     776.2523     610.5770
   1424.22668     776.5241     610.1468   1424.22668     776.5241     610.1468
   1424.21143     776.0190     609.5382   1424.21143     776.0190     609.5382
   1424.19617     774.8751     608.9652   1424.19617     774.8751     608.9652
   1424.18091     774.0441     608.9721   1424.18091     774.0441     608.9721
   1424.16565     773.7671     609.1911   1424.16565     773.7671     609.1911
