#     FILENAME=!Skynet_57528_lach-hhg-116_20390_20940.cyb.fits
#     BASENAME=Skynet_57528_lach-hhg-116_20390_20940
#     SRC_NAME=lach-hhg-116
#     OBSERVER=hhgmadison16_9500
#     DATE_OBS=2016-05-20T16:29:42.930
#        OBSID=20390
#      SCANNUM=20940
#          MJD=57528.6883
#          UTC=59471
#     SCANTYPE=track
#     DATAMODE=HIRES
#     TUNEFREQ=1420.0000
# Actual_FREQ1=1420.0000
# Actual_FREQ2=1420.0000
#    LO1Tuning=6870.000
#     RFFILTER=1355_1435
#        OBSBW=-15.6250
#        NCHAN=1024 
#        FOCUS=37.0709
#           RA=23:51:46.17
#          DEC=62:03:54.97
#      RA(hrs)=23.862800
#     DEC(deg)=62.065300
#    AZIM(deg)=324.561
#    ELEV(deg)=52.397
#     IFattens=10.00, 9.00
#      WARNING=None
#    TCAL_XL1=7.9635
#    TCAL_YR1=9.1340
#    TCAL_XL2=7.9635
#    TCAL_YR2=9.1340
#     TRX_XL1=11.7060
#     TRX_YR1=11.7060
#     TRX_XL2=11.7060
#     TRX_YR2=11.7060
#        TAVE=1.0000
#Freq1(MHz)          XL1          YR1  Freq2(MHz)          XL2          YR2 

   1427.81250     382.9775     278.8260   1427.81250     382.9775     278.8260
   1427.79724     383.2832     278.7564   1427.79724     383.2832     278.7564
   1427.78198     384.1583     280.1163   1427.78198     384.1583     280.1163
   1427.76672     384.0382     280.9659   1427.76672     384.0382     280.9659
   1427.75146     385.0366     281.6628   1427.75146     385.0366     281.6628
   1427.73621     386.4300     282.0394   1427.73621     386.4300     282.0394
   1427.72095     387.3931     283.3924   1427.72095     387.3931     283.3924
   1427.70569     387.7142     283.6567   1427.70569     387.7142     283.6567
   1427.69043     389.0017     284.9674   1427.69043     389.0017     284.9674
   1427.67517     390.2158     285.4851   1427.67517     390.2158     285.4851
   1427.65991     391.3382     286.5849   1427.65991     391.3382     286.5849
   1427.64465     392.5987     288.4561   1427.64465     392.5987     288.4561
   1427.62939     393.9406     288.7470   1427.62939     393.9406     288.7470
   1427.61414     395.1321     290.3328   1427.61414     395.1321     290.3328
   1427.59888     396.3198     292.1198   1427.59888     396.3198     292.1198
   1427.58362     397.8459     292.7624   1427.58362     397.8459     292.7624
   1427.56836     399.6258     293.7614   1427.56836     399.6258     293.7614
   1427.55310     400.8577     295.1275   1427.55310     400.8577     295.1275
   1427.53784     402.6428     296.3669   1427.53784     402.6428     296.3669
   1427.52258     404.0360     297.5910   1427.52258     404.0360     297.5910
   1427.50732     406.0739     299.2856   1427.50732     406.0739     299.2856
   1427.49207     407.2254     300.6573   1427.49207     407.2254     300.6573
   1427.47681     410.0183     301.8811   1427.47681     410.0183     301.8811
   1427.46155     410.9534     303.8568   1427.46155     410.9534     303.8568
   1427.44629     412.2868     305.3094   1427.44629     412.2868     305.3094
   1427.43103     415.1297     306.6885   1427.43103     415.1297     306.6885
   1427.41577     417.2612     308.4835   1427.41577     417.2612     308.4835
   1427.40051     419.5962     310.3220   1427.40051     419.5962     310.3220
   1427.38525     420.5431     312.0864   1427.38525     420.5431     312.0864
   1427.37000     422.7147     313.5508   1427.37000     422.7147     313.5508
   1427.35474     424.8874     315.3364   1427.35474     424.8874     315.3364
   1427.33948     427.2530     317.2943   1427.33948     427.2530     317.2943
   1427.32422     429.8145     319.2762   1427.32422     429.8145     319.2762
   1427.30896     432.2473     320.4625   1427.30896     432.2473     320.4625
   1427.29370     433.8895     322.5023   1427.29370     433.8895     322.5023
   1427.27844     435.9649     324.5946   1427.27844     435.9649     324.5946
   1427.26318     439.0520     326.0939   1427.26318     439.0520     326.0939
   1427.24792     441.3844     328.5096   1427.24792     441.3844     328.5096
   1427.23267     443.7425     330.0710   1427.23267     443.7425     330.0710
   1427.21741     445.9191     331.9912   1427.21741     445.9191     331.9912
   1427.20215     448.2692     334.0545   1427.20215     448.2692     334.0545
   1427.18689     450.7250     336.5995   1427.18689     450.7250     336.5995
   1427.17163     453.6737     338.2155   1427.17163     453.6737     338.2155
   1427.15637     456.1879     340.2198   1427.15637     456.1879     340.2198
   1427.14111     458.3250     342.6713   1427.14111     458.3250     342.6713
   1427.12585     461.9348     344.2843   1427.12585     461.9348     344.2843
   1427.11060     463.8521     347.3203   1427.11060     463.8521     347.3203
   1427.09534     466.4138     349.1951   1427.09534     466.4138     349.1951
   1427.08008     470.3928     351.5409   1427.08008     470.3928     351.5409
   1427.06482     472.2832     353.7302   1427.06482     472.2832     353.7302
   1427.04956     475.6107     356.2305   1427.04956     475.6107     356.2305
   1427.03430     478.5834     358.4774   1427.03430     478.5834     358.4774
   1427.01904     480.7006     360.3780   1427.01904     480.7006     360.3780
   1427.00378     483.7794     362.4536   1427.00378     483.7794     362.4536
   1426.98853     486.7305     365.0336   1426.98853     486.7305     365.0336
   1426.97327     489.7316     367.1824   1426.97327     489.7316     367.1824
   1426.95801     492.6015     369.9174   1426.95801     492.6015     369.9174
   1426.94275     495.7486     371.6888   1426.94275     495.7486     371.6888
   1426.92749     499.3663     373.8593   1426.92749     499.3663     373.8593
   1426.91223     501.6326     376.3185   1426.91223     501.6326     376.3185
   1426.89697     504.4535     379.3137   1426.89697     504.4535     379.3137
   1426.88171     507.4451     381.5854   1426.88171     507.4451     381.5854
   1426.86646     510.6199     384.0227   1426.86646     510.6199     384.0227
   1426.85120     512.9733     386.7478   1426.85120     512.9733     386.7478
   1426.83594     517.2710     388.8377   1426.83594     517.2710     388.8377
   1426.82068     519.7796     391.6176   1426.82068     519.7796     391.6176
   1426.80542     522.3283     393.4619   1426.80542     522.3283     393.4619
   1426.79016     524.3370     395.8409   1426.79016     524.3370     395.8409
   1426.77490     528.5669     399.1715   1426.77490     528.5669     399.1715
   1426.75964     532.2592     401.4816   1426.75964     532.2592     401.4816
   1426.74438     534.4924     403.9583   1426.74438     534.4924     403.9583
   1426.72913     538.0597     406.5902   1426.72913     538.0597     406.5902
   1426.71387     540.6229     408.6812   1426.71387     540.6229     408.6812
   1426.69861     544.1082     411.2796   1426.69861     544.1082     411.2796
   1426.68335     547.3932     413.6882   1426.68335     547.3932     413.6882
   1426.66809     549.9330     415.9539   1426.66809     549.9330     415.9539
   1426.65283     553.9623     418.3382   1426.65283     553.9623     418.3382
   1426.63757     557.0997     421.3711   1426.63757     557.0997     421.3711
   1426.62231     562.4974     423.9618   1426.62231     562.4974     423.9618
   1426.60706     564.2092     426.2579   1426.60706     564.2092     426.2579
   1426.59180     565.7930     428.1438   1426.59180     565.7930     428.1438
   1426.57654     569.1790     431.9538   1426.57654     569.1790     431.9538
   1426.56128     572.6518     433.4919   1426.56128     572.6518     433.4919
   1426.54602     575.2532     436.4240   1426.54602     575.2532     436.4240
   1426.53076     578.0061     438.4836   1426.53076     578.0061     438.4836
   1426.51550     581.1868     440.9105   1426.51550     581.1868     440.9105
   1426.50024     583.6006     443.7026   1426.50024     583.6006     443.7026
   1426.48499     586.0086     446.0522   1426.48499     586.0086     446.0522
   1426.46973     590.7958     448.4003   1426.46973     590.7958     448.4003
   1426.45447     593.1370     451.0139   1426.45447     593.1370     451.0139
   1426.43921     595.9323     454.0471   1426.43921     595.9323     454.0471
   1426.42395     599.4951     455.9531   1426.42395     599.4951     455.9531
   1426.40869     603.0660     459.0579   1426.40869     603.0660     459.0579
   1426.39343     605.3090     461.2477   1426.39343     605.3090     461.2477
   1426.37817     608.0054     463.5359   1426.37817     608.0054     463.5359
   1426.36292     610.9661     465.4756   1426.36292     610.9661     465.4756
   1426.34766     613.7277     468.2920   1426.34766     613.7277     468.2920
   1426.33240     617.0551     470.4976   1426.33240     617.0551     470.4976
   1426.31714     619.7452     473.3036   1426.31714     619.7452     473.3036
   1426.30188     622.2498     475.3511   1426.30188     622.2498     475.3511
   1426.28662     626.0844     477.5975   1426.28662     626.0844     477.5975
   1426.27136     627.3567     480.4795   1426.27136     627.3567     480.4795
   1426.25610     630.3380     482.6430   1426.25610     630.3380     482.6430
   1426.24084     634.2188     485.2512   1426.24084     634.2188     485.2512
   1426.22559     637.2146     487.8058   1426.22559     637.2146     487.8058
   1426.21033     638.8895     489.3707   1426.21033     638.8895     489.3707
   1426.19507     641.0245     492.4115   1426.19507     641.0245     492.4115
   1426.17981     644.3099     493.6872   1426.17981     644.3099     493.6872
   1426.16455     647.7265     497.0462   1426.16455     647.7265     497.0462
   1426.14929     649.4744     497.8888   1426.14929     649.4744     497.8888
   1426.13403     652.3630     501.4494   1426.13403     652.3630     501.4494
   1426.11877     655.5179     503.7751   1426.11877     655.5179     503.7751
   1426.10352     657.1119     505.8811   1426.10352     657.1119     505.8811
   1426.08826     661.0807     507.2241   1426.08826     661.0807     507.2241
   1426.07300     662.1680     510.0898   1426.07300     662.1680     510.0898
   1426.05774     664.0588     512.2592   1426.05774     664.0588     512.2592
   1426.04248     666.9696     514.7567   1426.04248     666.9696     514.7567
   1426.02722     669.5845     516.0135   1426.02722     669.5845     516.0135
   1426.01196     671.3270     519.5659   1426.01196     671.3270     519.5659
   1425.99670     674.2861     521.2027   1425.99670     674.2861     521.2027
   1425.98145     676.6507     522.9064   1425.98145     676.6507     522.9064
   1425.96619     679.2338     525.3036   1425.96619     679.2338     525.3036
   1425.95093     680.7048     527.2750   1425.95093     680.7048     527.2750
   1425.93567     682.7725     529.1946   1425.93567     682.7725     529.1946
   1425.92041     685.4587     531.2317   1425.92041     685.4587     531.2317
   1425.90515     687.6981     533.8250   1425.90515     687.6981     533.8250
   1425.88989     691.0167     535.4022   1425.88989     691.0167     535.4022
   1425.87463     691.5710     538.0687   1425.87463     691.5710     538.0687
   1425.85938     694.0229     538.7059   1425.85938     694.0229     538.7059
   1425.84412     697.0072     540.1868   1425.84412     697.0072     540.1868
   1425.82886     700.0980     542.8494   1425.82886     700.0980     542.8494
   1425.81360     699.9116     545.3528   1425.81360     699.9116     545.3528
   1425.79834     702.8729     547.4902   1425.79834     702.8729     547.4902
   1425.78308     705.4902     548.9373   1425.78308     705.4902     548.9373
   1425.76782     705.4951     550.0421   1425.76782     705.4951     550.0421
   1425.75256     707.7183     552.1252   1425.75256     707.7183     552.1252
   1425.73730     710.0785     554.8736   1425.73730     710.0785     554.8736
   1425.72205     712.4075     557.0680   1425.72205     712.4075     557.0680
   1425.70679     713.8186     557.4439   1425.70679     713.8186     557.4439
   1425.69153     715.0821     559.5136   1425.69153     715.0821     559.5136
   1425.67627     716.5973     561.2927   1425.67627     716.5973     561.2927
   1425.66101     717.8931     563.2948   1425.66101     717.8931     563.2948
   1425.64575     720.5611     565.9141   1425.64575     720.5611     565.9141
   1425.63049     721.8525     567.3537   1425.63049     721.8525     567.3537
   1425.61523     724.1249     568.8337   1425.61523     724.1249     568.8337
   1425.59998     725.0853     570.5991   1425.59998     725.0853     570.5991
   1425.58472     725.9778     571.9297   1425.58472     725.9778     571.9297
   1425.56946     727.2854     573.2333   1425.56946     727.2854     573.2333
   1425.55420     729.5240     575.9336   1425.55420     729.5240     575.9336
   1425.53894     730.6427     576.4259   1425.53894     730.6427     576.4259
   1425.52368     731.9766     578.2885   1425.52368     731.9766     578.2885
   1425.50842     733.9442     581.4498   1425.50842     733.9442     581.4498
   1425.49316     733.9874     581.9155   1425.49316     733.9874     581.9155
   1425.47791     736.0783     583.0468   1425.47791     736.0783     583.0468
   1425.46265     736.4498     585.5558   1425.46265     736.4498     585.5558
   1425.44739     738.0048     585.7924   1425.44739     738.0048     585.7924
   1425.43213     740.5219     588.5456   1425.43213     740.5219     588.5456
   1425.41687     741.8153     589.2596   1425.41687     741.8153     589.2596
   1425.40161     742.2525     590.7990   1425.40161     742.2525     590.7990
   1425.38635     743.8296     593.9491   1425.38635     743.8296     593.9491
   1425.37109     745.0742     592.9700   1425.37109     745.0742     592.9700
   1425.35583     745.5406     595.5908   1425.35583     745.5406     595.5908
   1425.34058     747.1099     596.7657   1425.34058     747.1099     596.7657
   1425.32532     746.7759     597.9491   1425.32532     746.7759     597.9491
   1425.31006     749.1348     599.4537   1425.31006     749.1348     599.4537
   1425.29480     749.6904     601.7369   1425.29480     749.6904     601.7369
   1425.27954     749.9305     601.9305   1425.27954     749.9305     601.9305
   1425.26428     752.2262     604.7175   1425.26428     752.2262     604.7175
   1425.24902     752.9007     604.9256   1425.24902     752.9007     604.9256
   1425.23376     753.7845     607.2217   1425.23376     753.7845     607.2217
   1425.21851     753.5590     607.8146   1425.21851     753.5590     607.8146
   1425.20325     754.5961     609.9470   1425.20325     754.5961     609.9470
   1425.18799     755.7950     611.1051   1425.18799     755.7950     611.1051
   1425.17273     755.5867     611.0005   1425.17273     755.5867     611.0005
   1425.15747     756.7449     612.8672   1425.15747     756.7449     612.8672
   1425.14221     758.1090     614.8494   1425.14221     758.1090     614.8494
   1425.12695     759.6534     615.2105   1425.12695     759.6534     615.2105
   1425.11169     759.2759     616.6420   1425.11169     759.2759     616.6420
   1425.09644     759.9075     618.0790   1425.09644     759.9075     618.0790
   1425.08118     759.1117     617.9741   1425.08118     759.1117     617.9741
   1425.06592     760.9466     620.2035   1425.06592     760.9466     620.2035
   1425.05066     761.9652     622.3423   1425.05066     761.9652     622.3423
   1425.03540     760.6380     622.5634   1425.03540     760.6380     622.5634
   1425.02014     760.6766     623.6951   1425.02014     760.6766     623.6951
   1425.00488     764.0621     624.5217   1425.00488     764.0621     624.5217
   1424.98962     761.9466     626.6028   1424.98962     761.9466     626.6028
   1424.97437     763.2270     626.0555   1424.97437     763.2270     626.0555
   1424.95911     763.4533     628.2406   1424.95911     763.4533     628.2406
   1424.94385     763.6686     628.5634   1424.94385     763.6686     628.5634
   1424.92859     764.3444     630.0629   1424.92859     764.3444     630.0629
   1424.91333     764.9067     630.6284   1424.91333     764.9067     630.6284
   1424.89807     764.1197     631.7236   1424.89807     764.1197     631.7236
   1424.88281     765.1799     632.2891   1424.88281     765.1799     632.2891
   1424.86755     764.9215     634.4164   1424.86755     764.9215     634.4164
   1424.85229     766.2784     635.4497   1424.85229     766.2784     635.4497
   1424.83704     766.4659     634.3637   1424.83704     766.4659     634.3637
   1424.82178     766.3865     635.3976   1424.82178     766.3865     635.3976
   1424.80652     765.5138     637.0132   1424.80652     765.5138     637.0132
   1424.79126     765.5126     638.7628   1424.79126     765.5126     638.7628
   1424.77600     767.7819     639.1388   1424.77600     767.7819     639.1388
   1424.76074     767.7566     639.8262   1424.76074     767.7566     639.8262
   1424.74548     768.0981     641.6796   1424.74548     768.0981     641.6796
   1424.73022     767.2770     640.9456   1424.73022     767.2770     640.9456
   1424.71497     767.8034     642.2007   1424.71497     767.8034     642.2007
   1424.69971     766.9661     641.8671   1424.69971     766.9661     641.8671
   1424.68445     767.2106     643.6599   1424.68445     767.2106     643.6599
   1424.66919     767.9838     644.8369   1424.66919     767.9838     644.8369
   1424.65393     767.4540     646.2882   1424.65393     767.4540     646.2882
   1424.63867     767.8306     645.6689   1424.63867     767.8306     645.6689
   1424.62341     767.9495     646.5068   1424.62341     767.9495     646.5068
   1424.60815     768.8302     648.3090   1424.60815     768.8302     648.3090
   1424.59290     767.6754     648.5159   1424.59290     767.6754     648.5159
   1424.57764     768.2286     649.5770   1424.57764     768.2286     649.5770
   1424.56238     768.3602     650.4094   1424.56238     768.3602     650.4094
   1424.54712     767.5679     650.2566   1424.54712     767.5679     650.2566
   1424.53186     766.1560     650.7298   1424.53186     766.1560     650.7298
   1424.51660     767.4214     653.2346   1424.51660     767.4214     653.2346
   1424.50134     766.1682     652.3558   1424.50134     766.1682     652.3558
   1424.48608     767.1967     652.6315   1424.48608     767.1967     652.6315
   1424.47083     767.4539     653.0560   1424.47083     767.4539     653.0560
   1424.45557     766.6055     654.4641   1424.45557     766.6055     654.4641
   1424.44031     767.6818     654.7288   1424.44031     767.6818     654.7288
   1424.42505     766.9120     655.3742   1424.42505     766.9120     655.3742
   1424.40979     766.8841     654.5787   1424.40979     766.8841     654.5787
   1424.39453     765.6572     656.0894   1424.39453     765.6572     656.0894
   1424.37927     765.2255     657.2828   1424.37927     765.2255     657.2828
   1424.36401     767.7628     658.3697   1424.36401     767.7628     658.3697
   1424.34875     765.1501     657.4800   1424.34875     765.1501     657.4800
   1424.33350     766.1492     658.1424   1424.33350     766.1492     658.1424
   1424.31824     765.1938     658.1661   1424.31824     765.1938     658.1661
   1424.30298     764.0598     659.3867   1424.30298     764.0598     659.3867
   1424.28772     764.8766     659.8395   1424.28772     764.8766     659.8395
   1424.27246     764.7445     659.9750   1424.27246     764.7445     659.9750
   1424.25720     764.5458     660.5551   1424.25720     764.5458     660.5551
   1424.24194     764.3990     661.0565   1424.24194     764.3990     661.0565
   1424.22668     763.2300     659.7581   1424.22668     763.2300     659.7581
   1424.21143     762.8265     662.4177   1424.21143     762.8265     662.4177
   1424.19617     762.7167     662.1802   1424.19617     762.7167     662.1802
   1424.18091     762.7439     662.7592   1424.18091     762.7439     662.7592
   1424.16565     762.9484     662.4830   1424.16565     762.9484     662.4830
