#     FILENAME=!Skynet_57528_lach-hhg-123_20412_20947.cyb.fits
#     BASENAME=Skynet_57528_lach-hhg-123_20412_20947
#     SRC_NAME=lach-hhg-123
#     OBSERVER=hhgmadison16_9500
#     DATE_OBS=2016-05-20T16:43:37.250
#        OBSID=20412
#      SCANNUM=20947
#          MJD=57528.6980
#          UTC=60307
#     SCANTYPE=track
#     DATAMODE=HIRES
#     TUNEFREQ=1420.0000
# Actual_FREQ1=1420.0000
# Actual_FREQ2=1420.0000
#    LO1Tuning=6870.000
#     RFFILTER=1355_1435
#        OBSBW=-15.6250
#        NCHAN=1024 
#        FOCUS=37.0709
#           RA=00:52:03.38
#          DEC=62:52:19.07
#      RA(hrs)=0.867600
#     DEC(deg)=62.872000
#    AZIM(deg)=329.546
#    ELEV(deg)=56.994
#     IFattens=10.00, 9.00
#      WARNING=None
#    TCAL_XL1=7.9635
#    TCAL_YR1=9.1340
#    TCAL_XL2=7.9635
#    TCAL_YR2=9.1340
#     TRX_XL1=11.7060
#     TRX_YR1=11.7060
#     TRX_XL2=11.7060
#     TRX_YR2=11.7060
#        TAVE=1.0000
#Freq1(MHz)          XL1          YR1  Freq2(MHz)          XL2          YR2 

   1427.81250     378.6593     277.8555   1427.81250     378.6593     277.8555
   1427.79724     379.0561     278.4657   1427.79724     379.0561     278.4657
   1427.78198     379.4709     279.2492   1427.78198     379.4709     279.2492
   1427.76672     380.7290     280.2444   1427.76672     380.7290     280.2444
   1427.75146     380.9483     280.9911   1427.75146     380.9483     280.9911
   1427.73621     382.1335     281.4652   1427.73621     382.1335     281.4652
   1427.72095     382.9325     283.2194   1427.72095     382.9325     283.2194
   1427.70569     383.6718     284.5469   1427.70569     383.6718     284.5469
   1427.69043     384.5500     284.8528   1427.69043     384.5500     284.8528
   1427.67517     386.3100     286.2104   1427.67517     386.3100     286.2104
   1427.65991     387.1474     287.6191   1427.65991     387.1474     287.6191
   1427.64465     389.0391     288.5419   1427.64465     389.0391     288.5419
   1427.62939     390.3853     289.7999   1427.62939     390.3853     289.7999
   1427.61414     391.5311     291.0986   1427.61414     391.5311     291.0986
   1427.59888     392.4878     292.1263   1427.59888     392.4878     292.1263
   1427.58362     393.7359     293.8429   1427.58362     393.7359     293.8429
   1427.56836     395.1568     294.9799   1427.56836     395.1568     294.9799
   1427.55310     396.7874     296.5180   1427.55310     396.7874     296.5180
   1427.53784     398.1334     298.2895   1427.53784     398.1334     298.2895
   1427.52258     399.7873     299.2653   1427.52258     399.7873     299.2653
   1427.50732     402.5550     301.3475   1427.50732     402.5550     301.3475
   1427.49207     403.5620     303.0091   1427.49207     403.5620     303.0091
   1427.47681     405.0558     304.4949   1427.47681     405.0558     304.4949
   1427.46155     407.4384     306.1809   1427.46155     407.4384     306.1809
   1427.44629     408.6757     307.9297   1427.44629     408.6757     307.9297
   1427.43103     410.7788     308.8182   1427.43103     410.7788     308.8182
   1427.41577     413.7206     311.4541   1427.41577     413.7206     311.4541
   1427.40051     414.8175     312.8379   1427.40051     414.8175     312.8379
   1427.38525     416.9998     314.5262   1427.38525     416.9998     314.5262
   1427.37000     418.8465     316.5244   1427.37000     418.8465     316.5244
   1427.35474     421.4900     318.7839   1427.35474     421.4900     318.7839
   1427.33948     423.6102     320.4263   1427.33948     423.6102     320.4263
   1427.32422     425.9635     322.3988   1427.32422     425.9635     322.3988
   1427.30896     428.0137     323.9849   1427.30896     428.0137     323.9849
   1427.29370     430.0309     326.0329   1427.29370     430.0309     326.0329
   1427.27844     432.7558     328.4176   1427.27844     432.7558     328.4176
   1427.26318     435.0488     330.3040   1427.26318     435.0488     330.3040
   1427.24792     437.4661     332.3971   1427.24792     437.4661     332.3971
   1427.23267     439.7832     333.9928   1427.23267     439.7832     333.9928
   1427.21741     441.9948     336.4030   1427.21741     441.9948     336.4030
   1427.20215     445.0694     338.5938   1427.20215     445.0694     338.5938
   1427.18689     447.4935     340.7364   1427.18689     447.4935     340.7364
   1427.17163     450.7152     342.4359   1427.17163     450.7152     342.4359
   1427.15637     453.1104     344.9302   1427.15637     453.1104     344.9302
   1427.14111     456.1313     347.6192   1427.14111     456.1313     347.6192
   1427.12585     458.1314     349.3345   1427.12585     458.1314     349.3345
   1427.11060     460.9984     351.3157   1427.11060     460.9984     351.3157
   1427.09534     463.9321     353.9951   1427.09534     463.9321     353.9951
   1427.08008     466.1071     356.6498   1427.08008     466.1071     356.6498
   1427.06482     468.8378     358.5797   1427.06482     468.8378     358.5797
   1427.04956     472.3525     360.8075   1427.04956     472.3525     360.8075
   1427.03430     474.0354     363.5862   1427.03430     474.0354     363.5862
   1427.01904     477.7989     365.3318   1427.01904     477.7989     365.3318
   1427.00378     481.1002     368.0461   1427.00378     481.1002     368.0461
   1426.98853     483.7076     370.3295   1426.98853     483.7076     370.3295
   1426.97327     487.1006     373.0567   1426.97327     487.1006     373.0567
   1426.95801     490.0313     375.7976   1426.95801     490.0313     375.7976
   1426.94275     492.6404     377.6070   1426.94275     492.6404     377.6070
   1426.92749     494.6406     380.5810   1426.92749     494.6406     380.5810
   1426.91223     499.2719     383.3560   1426.91223     499.2719     383.3560
   1426.89697     501.7906     385.6873   1426.89697     501.7906     385.6873
   1426.88171     504.0961     387.6638   1426.88171     504.0961     387.6638
   1426.86646     507.9261     390.6517   1426.86646     507.9261     390.6517
   1426.85120     510.7544     392.4454   1426.85120     510.7544     392.4454
   1426.83594     514.6194     395.5231   1426.83594     514.6194     395.5231
   1426.82068     517.2576     398.0281   1426.82068     517.2576     398.0281
   1426.80542     519.8144     400.2398   1426.80542     519.8144     400.2398
   1426.79016     522.6254     402.2502   1426.79016     522.6254     402.2502
   1426.77490     525.8372     404.5707   1426.77490     525.8372     404.5707
   1426.75964     530.3013     408.0128   1426.75964     530.3013     408.0128
   1426.74438     533.3583     409.8240   1426.74438     533.3583     409.8240
   1426.72913     537.0032     412.4168   1426.72913     537.0032     412.4168
   1426.71387     539.0387     414.8390   1426.71387     539.0387     414.8390
   1426.69861     541.8306     418.4868   1426.69861     541.8306     418.4868
   1426.68335     545.7036     420.7224   1426.68335     545.7036     420.7224
   1426.66809     548.4164     422.6663   1426.66809     548.4164     422.6663
   1426.65283     551.2307     425.1275   1426.65283     551.2307     425.1275
   1426.63757     554.8805     428.6189   1426.63757     554.8805     428.6189
   1426.62231     560.1381     435.2792   1426.62231     560.1381     435.2792
   1426.60706     561.4684     434.4526   1426.60706     561.4684     434.4526
   1426.59180     564.4739     435.7039   1426.59180     564.4739     435.7039
   1426.57654     567.9841     438.0201   1426.57654     567.9841     438.0201
   1426.56128     570.7317     440.8056   1426.56128     570.7317     440.8056
   1426.54602     574.8143     442.8286   1426.54602     574.8143     442.8286
   1426.53076     577.6552     445.3215   1426.53076     577.6552     445.3215
   1426.51550     580.9039     447.8443   1426.51550     580.9039     447.8443
   1426.50024     583.6692     450.9543   1426.50024     583.6692     450.9543
   1426.48499     586.4264     452.4868   1426.48499     586.4264     452.4868
   1426.46973     589.1385     455.4473   1426.46973     589.1385     455.4473
   1426.45447     592.9913     457.5689   1426.45447     592.9913     457.5689
   1426.43921     596.4052     460.3951   1426.43921     596.4052     460.3951
   1426.42395     598.7020     463.0105   1426.42395     598.7020     463.0105
   1426.40869     602.4603     464.9955   1426.40869     602.4603     464.9955
   1426.39343     605.5941     467.7714   1426.39343     605.5941     467.7714
   1426.37817     608.1789     469.9210   1426.37817     608.1789     469.9210
   1426.36292     610.6599     472.7884   1426.36292     610.6599     472.7884
   1426.34766     614.4079     474.2113   1426.34766     614.4079     474.2113
   1426.33240     617.3723     475.7934   1426.33240     617.3723     475.7934
   1426.31714     620.8370     479.3778   1426.31714     620.8370     479.3778
   1426.30188     623.0853     481.9057   1426.30188     623.0853     481.9057
   1426.28662     625.1586     483.5928   1426.28662     625.1586     483.5928
   1426.27136     629.2660     485.5691   1426.27136     629.2660     485.5691
   1426.25610     632.7925     487.3246   1426.25610     632.7925     487.3246
   1426.24084     634.1625     490.5998   1426.24084     634.1625     490.5998
   1426.22559     637.7305     492.5598   1426.22559     637.7305     492.5598
   1426.21033     640.4830     495.4915   1426.21033     640.4830     495.4915
   1426.19507     642.4332     496.4074   1426.19507     642.4332     496.4074
   1426.17981     645.1509     499.7643   1426.17981     645.1509     499.7643
   1426.16455     648.4382     500.7584   1426.16455     648.4382     500.7584
   1426.14929     651.8065     503.2673   1426.14929     651.8065     503.2673
   1426.13403     654.3261     506.0544   1426.13403     654.3261     506.0544
   1426.11877     657.4527     507.7181   1426.11877     657.4527     507.7181
   1426.10352     658.6712     509.9589   1426.10352     658.6712     509.9589
   1426.08826     661.4613     512.4396   1426.08826     661.4613     512.4396
   1426.07300     664.1973     514.2201   1426.07300     664.1973     514.2201
   1426.05774     667.7729     515.7476   1426.05774     667.7729     515.7476
   1426.04248     668.7419     517.7538   1426.04248     668.7419     517.7538
   1426.02722     672.2250     520.0681   1426.02722     672.2250     520.0681
   1426.01196     674.6450     521.1064   1426.01196     674.6450     521.1064
   1425.99670     677.2438     524.7094   1425.99670     677.2438     524.7094
   1425.98145     678.8002     526.2832   1425.98145     678.8002     526.2832
   1425.96619     681.5908     529.0850   1425.96619     681.5908     529.0850
   1425.95093     684.0239     530.8262   1425.95093     684.0239     530.8262
   1425.93567     686.0005     530.7756   1425.93567     686.0005     530.7756
   1425.92041     688.4871     533.1074   1425.92041     688.4871     533.1074
   1425.90515     691.1624     534.9823   1425.90515     691.1624     534.9823
   1425.88989     693.2864     537.2259   1425.88989     693.2864     537.2259
   1425.87463     695.2672     539.1260   1425.87463     695.2672     539.1260
   1425.85938     697.4807     539.9953   1425.85938     697.4807     539.9953
   1425.84412     700.2514     543.2601   1425.84412     700.2514     543.2601
   1425.82886     702.1551     544.0248   1425.82886     702.1551     544.0248
   1425.81360     703.9440     545.5602   1425.81360     703.9440     545.5602
   1425.79834     705.7153     548.3694   1425.79834     705.7153     548.3694
   1425.78308     707.3762     549.2038   1425.78308     707.3762     549.2038
   1425.76782     710.0648     551.3610   1425.76782     710.0648     551.3610
   1425.75256     712.5398     552.2857   1425.75256     712.5398     552.2857
   1425.73730     714.8349     554.0225   1425.73730     714.8349     554.0225
   1425.72205     715.7006     556.6360   1425.72205     715.7006     556.6360
   1425.70679     717.6860     557.2353   1425.70679     717.6860     557.2353
   1425.69153     719.9680     558.3807   1425.69153     719.9680     558.3807
   1425.67627     720.5711     560.4262   1425.67627     720.5711     560.4262
   1425.66101     723.4310     562.7930   1425.66101     723.4310     562.7930
   1425.64575     724.8752     564.6325   1425.64575     724.8752     564.6325
   1425.63049     726.0107     566.0708   1425.63049     726.0107     566.0708
   1425.61523     729.0297     567.8657   1425.61523     729.0297     567.8657
   1425.59998     730.2812     569.3988   1425.59998     730.2812     569.3988
   1425.58472     731.5266     570.0591   1425.58472     731.5266     570.0591
   1425.56946     732.4648     571.7236   1425.56946     732.4648     571.7236
   1425.55420     732.9070     573.1492   1425.55420     732.9070     573.1492
   1425.53894     736.6964     574.1665   1425.53894     736.6964     574.1665
   1425.52368     737.2471     575.7839   1425.52368     737.2471     575.7839
   1425.50842     739.2062     576.8635   1425.50842     739.2062     576.8635
   1425.49316     739.4799     578.6848   1425.49316     739.4799     578.6848
   1425.47791     740.9106     579.5478   1425.47791     740.9106     579.5478
   1425.46265     741.7599     580.6885   1425.46265     741.7599     580.6885
   1425.44739     744.8879     583.4161   1425.44739     744.8879     583.4161
   1425.43213     745.4890     583.2615   1425.43213     745.4890     583.2615
   1425.41687     746.9496     585.6296   1425.41687     746.9496     585.6296
   1425.40161     747.6638     587.1656   1425.40161     747.6638     587.1656
   1425.38635     748.0251     587.7060   1425.38635     748.0251     587.7060
   1425.37109     750.6843     588.9702   1425.37109     750.6843     588.9702
   1425.35583     751.5040     589.7161   1425.35583     751.5040     589.7161
   1425.34058     752.4968     591.1218   1425.34058     752.4968     591.1218
   1425.32532     752.7928     592.1883   1425.32532     752.7928     592.1883
   1425.31006     754.0671     593.3527   1425.31006     754.0671     593.3527
   1425.29480     754.3161     594.9297   1425.29480     754.3161     594.9297
   1425.27954     756.5845     596.1262   1425.27954     756.5845     596.1262
   1425.26428     756.2867     596.0991   1425.26428     756.2867     596.0991
   1425.24902     757.3653     597.5273   1425.24902     757.3653     597.5273
   1425.23376     758.9090     599.2382   1425.23376     758.9090     599.2382
   1425.21851     759.6966     601.0833   1425.21851     759.6966     601.0833
   1425.20325     760.7282     600.8618   1425.20325     760.7282     600.8618
   1425.18799     761.8154     602.4306   1425.18799     761.8154     602.4306
   1425.17273     762.2026     602.9089   1425.17273     762.2026     602.9089
   1425.15747     763.3109     604.2534   1425.15747     763.3109     604.2534
   1425.14221     764.6271     605.5411   1425.14221     764.6271     605.5411
   1425.12695     764.8736     606.1184   1425.12695     764.8736     606.1184
   1425.11169     765.7877     606.9109   1425.11169     765.7877     606.9109
   1425.09644     764.7789     608.2538   1425.09644     764.7789     608.2538
   1425.08118     765.9891     608.6202   1425.08118     765.9891     608.6202
   1425.06592     767.2684     610.4720   1425.06592     767.2684     610.4720
   1425.05066     767.2054     610.6644   1425.05066     767.2054     610.6644
   1425.03540     767.8351     611.5297   1425.03540     767.8351     611.5297
   1425.02014     766.7316     612.2920   1425.02014     766.7316     612.2920
   1425.00488     767.9242     613.4426   1425.00488     767.9242     613.4426
   1424.98962     769.0775     613.9366   1424.98962     769.0775     613.9366
   1424.97437     768.9633     614.2979   1424.97437     768.9633     614.2979
   1424.95911     770.7280     614.9370   1424.95911     770.7280     614.9370
   1424.94385     770.2867     616.0224   1424.94385     770.2867     616.0224
   1424.92859     769.0779     617.1237   1424.92859     769.0779     617.1237
   1424.91333     770.4654     617.4445   1424.91333     770.4654     617.4445
   1424.89807     770.0898     618.5850   1424.89807     770.0898     618.5850
   1424.88281     770.2568     619.3353   1424.88281     770.2568     619.3353
   1424.86755     771.7811     618.7518   1424.86755     771.7811     618.7518
   1424.85229     771.4075     620.0281   1424.85229     771.4075     620.0281
   1424.83704     770.4094     621.3764   1424.83704     770.4094     621.3764
   1424.82178     771.7798     621.6462   1424.82178     771.7798     621.6462
   1424.80652     771.6569     621.9158   1424.80652     771.6569     621.9158
   1424.79126     772.1458     621.4316   1424.79126     772.1458     621.4316
   1424.77600     770.9035     622.8848   1424.77600     770.9035     622.8848
   1424.76074     772.4240     623.5641   1424.76074     772.4240     623.5641
   1424.74548     771.3767     624.4919   1424.74548     771.3767     624.4919
   1424.73022     773.1348     625.6845   1424.73022     773.1348     625.6845
   1424.71497     772.4274     625.2626   1424.71497     772.4274     625.2626
   1424.69971     772.9911     626.8270   1424.69971     772.9911     626.8270
   1424.68445     773.0997     626.2421   1424.68445     773.0997     626.2421
   1424.66919     772.5107     626.7989   1424.66919     772.5107     626.7989
   1424.65393     773.6653     626.4231   1424.65393     773.6653     626.4231
   1424.63867     771.8220     627.6887   1424.63867     771.8220     627.6887
   1424.62341     772.9804     628.4239   1424.62341     772.9804     628.4239
   1424.60815     771.8615     629.0066   1424.60815     771.8615     629.0066
   1424.59290     773.2032     629.7015   1424.59290     773.2032     629.7015
   1424.57764     772.7405     630.5972   1424.57764     772.7405     630.5972
   1424.56238     772.3826     629.4120   1424.56238     772.3826     629.4120
   1424.54712     772.2602     630.4457   1424.54712     772.2602     630.4457
   1424.53186     772.7003     630.5692   1424.53186     772.7003     630.5692
   1424.51660     773.0872     631.1034   1424.51660     773.0872     631.1034
   1424.50134     772.0106     632.0685   1424.50134     772.0106     632.0685
   1424.48608     770.1879     630.8495   1424.48608     770.1879     630.8495
   1424.47083     771.0941     631.7164   1424.47083     771.0941     631.7164
   1424.45557     771.4417     631.7642   1424.45557     771.4417     631.7642
   1424.44031     770.5726     631.8132   1424.44031     770.5726     631.8132
   1424.42505     771.3953     632.4468   1424.42505     771.3953     632.4468
   1424.40979     770.3991     633.2620   1424.40979     770.3991     633.2620
   1424.39453     769.6904     633.5740   1424.39453     769.6904     633.5740
   1424.37927     770.1197     634.0358   1424.37927     770.1197     634.0358
   1424.36401     770.1434     634.3571   1424.36401     770.1434     634.3571
   1424.34875     769.6497     634.0833   1424.34875     769.6497     634.0833
   1424.33350     768.5604     634.1144   1424.33350     768.5604     634.1144
   1424.31824     768.4054     633.9833   1424.31824     768.4054     633.9833
   1424.30298     768.5021     634.0831   1424.30298     768.5021     634.0831
   1424.28772     768.5535     635.2100   1424.28772     768.5535     635.2100
   1424.27246     768.5712     634.2088   1424.27246     768.5712     634.2088
   1424.25720     768.2709     634.2322   1424.25720     768.2709     634.2322
   1424.24194     767.5554     635.2454   1424.24194     767.5554     635.2454
   1424.22668     768.2703     635.5692   1424.22668     768.2703     635.5692
   1424.21143     766.4730     636.1891   1424.21143     766.4730     636.1891
   1424.19617     766.8619     635.7640   1424.19617     766.8619     635.7640
   1424.18091     767.4145     636.6714   1424.18091     767.4145     636.6714
   1424.16565     766.3645     635.9731   1424.16565     766.3645     635.9731
