#     FILENAME=!Skynet_57528_lach-hhg-143_20469_20967.cyb.fits
#     BASENAME=Skynet_57528_lach-hhg-143_20469_20967
#     SRC_NAME=lach-hhg-143
#     OBSERVER=hhgmadison16_9500
#     DATE_OBS=2016-05-20T17:23:33.370
#        OBSID=20469
#      SCANNUM=20967
#          MJD=57528.7257
#          UTC=62702
#     SCANTYPE=track
#     DATAMODE=HIRES
#     TUNEFREQ=1420.0000
# Actual_FREQ1=1420.0000
# Actual_FREQ2=1420.0000
#    LO1Tuning=6870.000
#     RFFILTER=1355_1435
#        OBSBW=-15.6250
#        NCHAN=1024 
#        FOCUS=37.0709
#           RA=03:26:14.69
#          DEC=56:42:55.00
#      RA(hrs)=3.437400
#     DEC(deg)=56.715300
#    AZIM(deg)=346.048
#    ELEV(deg)=70.838
#     IFattens=10.00, 9.00
#      WARNING=None
#    TCAL_XL1=7.9635
#    TCAL_YR1=9.1340
#    TCAL_XL2=7.9635
#    TCAL_YR2=9.1340
#     TRX_XL1=11.7060
#     TRX_YR1=11.7060
#     TRX_XL2=11.7060
#     TRX_YR2=11.7060
#        TAVE=1.0000
#Freq1(MHz)          XL1          YR1  Freq2(MHz)          XL2          YR2 

   1427.81250     379.9427     319.3725   1427.81250     379.9427     319.3725
   1427.79724     380.7235     320.9835   1427.79724     380.7235     320.9835
   1427.78198     381.7776     321.9583   1427.78198     381.7776     321.9583
   1427.76672     382.5457     323.0262   1427.76672     382.5457     323.0262
   1427.75146     383.5394     324.3992   1427.75146     383.5394     324.3992
   1427.73621     384.1384     325.8551   1427.73621     384.1384     325.8551
   1427.72095     384.8911     326.9784   1427.72095     384.8911     326.9784
   1427.70569     386.0420     328.5904   1427.70569     386.0420     328.5904
   1427.69043     387.1539     329.3408   1427.69043     387.1539     329.3408
   1427.67517     387.4984     331.1015   1427.67517     387.4984     331.1015
   1427.65991     389.1918     332.3216   1427.65991     389.1918     332.3216
   1427.64465     390.4601     334.2219   1427.64465     390.4601     334.2219
   1427.62939     391.3565     335.7027   1427.62939     391.3565     335.7027
   1427.61414     392.8788     337.7524   1427.61414     392.8788     337.7524
   1427.59888     394.1541     339.0737   1427.59888     394.1541     339.0737
   1427.58362     395.3446     341.1290   1427.58362     395.3446     341.1290
   1427.56836     397.0517     342.6170   1427.56836     397.0517     342.6170
   1427.55310     398.5711     344.0861   1427.55310     398.5711     344.0861
   1427.53784     400.9294     345.1279   1427.53784     400.9294     345.1279
   1427.52258     401.6924     347.5489   1427.52258     401.6924     347.5489
   1427.50732     403.2503     349.5716   1427.50732     403.2503     349.5716
   1427.49207     404.7224     351.3815   1427.49207     404.7224     351.3815
   1427.47681     407.0326     353.1624   1427.47681     407.0326     353.1624
   1427.46155     408.7255     356.0012   1427.46155     408.7255     356.0012
   1427.44629     410.5910     357.3244   1427.44629     410.5910     357.3244
   1427.43103     412.9831     359.2336   1427.43103     412.9831     359.2336
   1427.41577     414.3789     362.0246   1427.41577     414.3789     362.0246
   1427.40051     416.5183     362.5589   1427.40051     416.5183     362.5589
   1427.38525     418.4521     365.6387   1427.38525     418.4521     365.6387
   1427.37000     421.0259     367.7506   1427.37000     421.0259     367.7506
   1427.35474     423.0566     369.6809   1427.35474     423.0566     369.6809
   1427.33948     424.8716     371.9418   1427.33948     424.8716     371.9418
   1427.32422     427.4993     374.2275   1427.32422     427.4993     374.2275
   1427.30896     429.8257     376.2034   1427.30896     429.8257     376.2034
   1427.29370     432.2395     378.5828   1427.29370     432.2395     378.5828
   1427.27844     434.1646     381.1679   1427.27844     434.1646     381.1679
   1427.26318     436.4510     383.3947   1427.26318     436.4510     383.3947
   1427.24792     438.5436     385.5029   1427.24792     438.5436     385.5029
   1427.23267     441.2421     387.5487   1427.23267     441.2421     387.5487
   1427.21741     443.8293     390.7683   1427.21741     443.8293     390.7683
   1427.20215     447.3013     392.7336   1427.20215     447.3013     392.7336
   1427.18689     448.8306     394.7566   1427.18689     448.8306     394.7566
   1427.17163     451.5396     397.5197   1427.17163     451.5396     397.5197
   1427.15637     453.8998     399.4470   1427.15637     453.8998     399.4470
   1427.14111     456.8951     401.4496   1427.14111     456.8951     401.4496
   1427.12585     459.6196     405.0277   1427.12585     459.6196     405.0277
   1427.11060     462.3647     407.2844   1427.11060     462.3647     407.2844
   1427.09534     464.9241     409.4870   1427.09534     464.9241     409.4870
   1427.08008     467.7626     412.1437   1427.08008     467.7626     412.1437
   1427.06482     471.0108     414.3539   1427.06482     471.0108     414.3539
   1427.04956     472.9019     417.2061   1427.04956     472.9019     417.2061
   1427.03430     476.5033     419.9735   1427.03430     476.5033     419.9735
   1427.01904     478.8702     421.9227   1427.01904     478.8702     421.9227
   1427.00378     482.3863     424.4897   1427.00378     482.3863     424.4897
   1426.98853     484.6407     426.8952   1426.98853     484.6407     426.8952
   1426.97327     487.4399     429.5381   1426.97327     487.4399     429.5381
   1426.95801     491.7525     431.8134   1426.95801     491.7525     431.8134
   1426.94275     494.4475     434.7381   1426.94275     494.4475     434.7381
   1426.92749     497.0353     436.9481   1426.92749     497.0353     436.9481
   1426.91223     499.3273     438.7715   1426.91223     499.3273     438.7715
   1426.89697     503.3627     442.7442   1426.89697     503.3627     442.7442
   1426.88171     505.1299     445.1217   1426.88171     505.1299     445.1217
   1426.86646     509.2113     447.6901   1426.86646     509.2113     447.6901
   1426.85120     512.4107     449.0154   1426.85120     512.4107     449.0154
   1426.83594     514.7890     452.3191   1426.83594     514.7890     452.3191
   1426.82068     518.5792     453.9173   1426.82068     518.5792     453.9173
   1426.80542     521.6866     456.8837   1426.80542     521.6866     456.8837
   1426.79016     525.4231     459.8333   1426.79016     525.4231     459.8333
   1426.77490     528.4394     462.3051   1426.77490     528.4394     462.3051
   1426.75964     531.1657     464.3606   1426.75964     531.1657     464.3606
   1426.74438     534.4708     466.8504   1426.74438     534.4708     466.8504
   1426.72913     537.7597     469.3174   1426.72913     537.7597     469.3174
   1426.71387     540.1315     472.3286   1426.71387     540.1315     472.3286
   1426.69861     544.5604     474.3900   1426.69861     544.5604     474.3900
   1426.68335     548.1063     476.5134   1426.68335     548.1063     476.5134
   1426.66809     550.0279     479.5298   1426.66809     550.0279     479.5298
   1426.65283     553.7725     480.9745   1426.65283     553.7725     480.9745
   1426.63757     556.7885     484.5983   1426.63757     556.7885     484.5983
   1426.62231     563.5295     502.7593   1426.62231     563.5295     502.7593
   1426.60706     564.3817     491.1328   1426.60706     564.3817     491.1328
   1426.59180     566.8888     491.4233   1426.59180     566.8888     491.4233
   1426.57654     570.7402     494.0704   1426.57654     570.7402     494.0704
   1426.56128     573.6184     495.7184   1426.56128     573.6184     495.7184
   1426.54602     577.2264     498.2895   1426.54602     577.2264     498.2895
   1426.53076     579.4823     501.0285   1426.53076     579.4823     501.0285
   1426.51550     582.6436     502.8758   1426.51550     582.6436     502.8758
   1426.50024     585.6501     505.4695   1426.50024     585.6501     505.4695
   1426.48499     589.6658     507.8445   1426.48499     589.6658     507.8445
   1426.46973     592.5007     509.5385   1426.46973     592.5007     509.5385
   1426.45447     595.2981     512.3575   1426.45447     595.2981     512.3575
   1426.43921     599.4365     514.7438   1426.43921     599.4365     514.7438
   1426.42395     602.4713     515.8628   1426.42395     602.4713     515.8628
   1426.40869     605.4364     517.8751   1426.40869     605.4364     517.8751
   1426.39343     607.6064     520.0641   1426.39343     607.6064     520.0641
   1426.37817     612.1465     523.0712   1426.37817     612.1465     523.0712
   1426.36292     615.3365     525.2868   1426.36292     615.3365     525.2868
   1426.34766     616.8780     526.7930   1426.34766     616.8780     526.7930
   1426.33240     621.0552     528.6719   1426.33240     621.0552     528.6719
   1426.31714     623.6152     531.4768   1426.31714     623.6152     531.4768
   1426.30188     627.7391     533.5587   1426.30188     627.7391     533.5587
   1426.28662     630.2029     535.2576   1426.28662     630.2029     535.2576
   1426.27136     633.9345     537.9864   1426.27136     633.9345     537.9864
   1426.25610     636.8110     540.0068   1426.25610     636.8110     540.0068
   1426.24084     640.0156     541.0404   1426.24084     640.0156     541.0404
   1426.22559     641.6910     543.4251   1426.22559     641.6910     543.4251
   1426.21033     645.2704     545.9951   1426.21033     645.2704     545.9951
   1426.19507     647.9824     546.8060   1426.19507     647.9824     546.8060
   1426.17981     652.7075     548.5512   1426.17981     652.7075     548.5512
   1426.16455     654.8976     551.3340   1426.16455     654.8976     551.3340
   1426.14929     656.5930     552.2803   1426.14929     656.5930     552.2803
   1426.13403     660.5465     554.5483   1426.13403     660.5465     554.5483
   1426.11877     661.7684     556.3016   1426.11877     661.7684     556.3016
   1426.10352     665.2055     558.1634   1426.10352     665.2055     558.1634
   1426.08826     668.8599     560.3312   1426.08826     668.8599     560.3312
   1426.07300     671.5706     561.9594   1426.07300     671.5706     561.9594
   1426.05774     674.1830     563.1497   1426.05774     674.1830     563.1497
   1426.04248     677.2083     565.2101   1426.04248     677.2083     565.2101
   1426.02722     679.1282     567.4324   1426.02722     679.1282     567.4324
   1426.01196     682.9327     569.0690   1426.01196     682.9327     569.0690
   1425.99670     684.5285     570.1449   1425.99670     684.5285     570.1449
   1425.98145     687.0904     571.3541   1425.98145     687.0904     571.3541
   1425.96619     689.7154     573.9840   1425.96619     689.7154     573.9840
   1425.95093     692.3404     574.9473   1425.95093     692.3404     574.9473
   1425.93567     695.2299     577.6129   1425.93567     695.2299     577.6129
   1425.92041     698.0126     577.8276   1425.92041     698.0126     577.8276
   1425.90515     699.6434     579.3072   1425.90515     699.6434     579.3072
   1425.88989     703.2084     580.7103   1425.88989     703.2084     580.7103
   1425.87463     705.0642     581.7197   1425.87463     705.0642     581.7197
   1425.85938     707.2299     583.2369   1425.85938     707.2299     583.2369
   1425.84412     708.7531     585.7779   1425.84412     708.7531     585.7779
   1425.82886     711.3322     586.7849   1425.82886     711.3322     586.7849
   1425.81360     713.6453     587.2139   1425.81360     713.6453     587.2139
   1425.79834     717.8517     589.7384   1425.79834     717.8517     589.7384
   1425.78308     719.6415     590.0367   1425.78308     719.6415     590.0367
   1425.76782     720.1607     590.9825   1425.76782     720.1607     590.9825
   1425.75256     721.8771     593.5784   1425.75256     721.8771     593.5784
   1425.73730     725.2618     593.8732   1425.73730     725.2618     593.8732
   1425.72205     726.9726     594.7666   1425.72205     726.9726     594.7666
   1425.70679     728.3181     596.3981   1425.70679     728.3181     596.3981
   1425.69153     729.8415     598.3832   1425.69153     729.8415     598.3832
   1425.67627     732.7297     598.9233   1425.67627     732.7297     598.9233
   1425.66101     734.5068     600.9014   1425.66101     734.5068     600.9014
   1425.64575     735.4163     601.4874   1425.64575     735.4163     601.4874
   1425.63049     737.7142     602.6885   1425.63049     737.7142     602.6885
   1425.61523     741.7761     603.5684   1425.61523     741.7761     603.5684
   1425.59998     742.1398     604.0068   1425.59998     742.1398     604.0068
   1425.58472     743.0312     604.7770   1425.58472     743.0312     604.7770
   1425.56946     744.7141     605.6449   1425.56946     744.7141     605.6449
   1425.55420     746.6152     607.8551   1425.55420     746.6152     607.8551
   1425.53894     748.4554     607.8127   1425.53894     748.4554     607.8127
   1425.52368     750.8561     607.7919   1425.52368     750.8561     607.7919
   1425.50842     751.3353     610.2058   1425.50842     751.3353     610.2058
   1425.49316     754.5551     609.8416   1425.49316     754.5551     609.8416
   1425.47791     755.8791     610.9230   1425.47791     755.8791     610.9230
   1425.46265     756.2485     612.3128   1425.46265     756.2485     612.3128
   1425.44739     757.1601     612.8528   1425.44739     757.1601     612.8528
   1425.43213     757.7280     614.0110   1425.43213     757.7280     614.0110
   1425.41687     760.9008     615.8666   1425.41687     760.9008     615.8666
   1425.40161     762.1823     616.4567   1425.40161     762.1823     616.4567
   1425.38635     763.8207     617.2054   1425.38635     763.8207     617.2054
   1425.37109     764.8742     617.7479   1425.37109     764.8742     617.7479
   1425.35583     766.0402     617.8702   1425.35583     766.0402     617.8702
   1425.34058     766.5348     617.8192   1425.34058     766.5348     617.8192
   1425.32532     767.2828     619.0573   1425.32532     767.2828     619.0573
   1425.31006     769.5763     619.6422   1425.31006     769.5763     619.6422
   1425.29480     769.1686     619.8952   1425.29480     769.1686     619.8952
   1425.27954     771.5929     621.9015   1425.27954     771.5929     621.9015
   1425.26428     772.8687     622.2277   1425.26428     772.8687     622.2277
   1425.24902     774.2021     623.0147   1425.24902     774.2021     623.0147
   1425.23376     775.5850     622.9807   1425.23376     775.5850     622.9807
   1425.21851     776.6141     624.7253   1425.21851     776.6141     624.7253
   1425.20325     777.2839     623.7700   1425.20325     777.2839     623.7700
   1425.18799     777.6008     623.7089   1425.18799     777.6008     623.7089
   1425.17273     778.0908     624.7317   1425.17273     778.0908     624.7317
   1425.15747     778.4120     625.2634   1425.15747     778.4120     625.2634
   1425.14221     778.7997     627.3630   1425.14221     778.7997     627.3630
   1425.12695     780.8703     627.2391   1425.12695     780.8703     627.2391
   1425.11169     781.8444     627.3564   1425.11169     781.8444     627.3564
   1425.09644     781.5312     627.3195   1425.09644     781.5312     627.3195
   1425.08118     782.9086     627.8423   1425.08118     782.9086     627.8423
   1425.06592     784.0537     627.9364   1425.06592     784.0537     627.9364
   1425.05066     783.5049     628.8663   1425.05066     783.5049     628.8663
   1425.03540     785.0501     630.5505   1425.03540     785.0501     630.5505
   1425.02014     785.4475     629.4417   1425.02014     785.4475     629.4417
   1425.00488     786.1645     630.5463   1425.00488     786.1645     630.5463
   1424.98962     787.6760     630.0059   1424.98962     787.6760     630.0059
   1424.97437     785.9577     630.4753   1424.97437     785.9577     630.4753
   1424.95911     786.7938     631.6014   1424.95911     786.7938     631.6014
   1424.94385     788.1684     630.0724   1424.94385     788.1684     630.0724
   1424.92859     788.0842     630.9130   1424.92859     788.0842     630.9130
   1424.91333     788.2496     631.6886   1424.91333     788.2496     631.6886
   1424.89807     788.8174     630.8782   1424.89807     788.8174     630.8782
   1424.88281     788.3324     631.8334   1424.88281     788.3324     631.8334
   1424.86755     789.4174     631.7476   1424.86755     789.4174     631.7476
   1424.85229     790.3378     631.9196   1424.85229     790.3378     631.9196
   1424.83704     788.6978     632.4786   1424.83704     788.6978     632.4786
   1424.82178     789.7461     632.4612   1424.82178     789.7461     632.4612
   1424.80652     789.6215     633.0938   1424.80652     789.6215     633.0938
   1424.79126     790.3275     632.6375   1424.79126     790.3275     632.6375
   1424.77600     790.1675     633.1021   1424.77600     790.1675     633.1021
   1424.76074     791.1915     632.4741   1424.76074     791.1915     632.4741
   1424.74548     790.5131     633.2767   1424.74548     790.5131     633.2767
   1424.73022     791.9698     632.7341   1424.73022     791.9698     632.7341
   1424.71497     790.9945     633.7206   1424.71497     790.9945     633.7206
   1424.69971     789.7190     633.2838   1424.69971     789.7190     633.2838
   1424.68445     790.5650     632.8278   1424.68445     790.5650     632.8278
   1424.66919     791.3499     633.3389   1424.66919     791.3499     633.3389
   1424.65393     791.0504     633.6909   1424.65393     791.0504     633.6909
   1424.63867     791.2486     633.7620   1424.63867     791.2486     633.7620
   1424.62341     791.0911     634.0785   1424.62341     791.0911     634.0785
   1424.60815     790.1688     634.2582   1424.60815     790.1688     634.2582
   1424.59290     790.5425     633.4359   1424.59290     790.5425     633.4359
   1424.57764     789.7786     633.2855   1424.57764     789.7786     633.2855
   1424.56238     790.5068     633.7993   1424.56238     790.5068     633.7993
   1424.54712     788.7083     633.9675   1424.54712     788.7083     633.9675
   1424.53186     789.2498     635.4816   1424.53186     789.2498     635.4816
   1424.51660     789.0625     633.6588   1424.51660     789.0625     633.6588
   1424.50134     789.7144     633.3006   1424.50134     789.7144     633.3006
   1424.48608     789.0161     633.1741   1424.48608     789.0161     633.1741
   1424.47083     790.1780     632.7902   1424.47083     790.1780     632.7902
   1424.45557     788.7435     634.7199   1424.45557     788.7435     634.7199
   1424.44031     789.1763     633.5087   1424.44031     789.1763     633.5087
   1424.42505     787.8640     633.0105   1424.42505     787.8640     633.0105
   1424.40979     787.4440     633.2380   1424.40979     787.4440     633.2380
   1424.39453     788.4517     633.5647   1424.39453     788.4517     633.5647
   1424.37927     786.7288     632.6738   1424.37927     786.7288     632.6738
   1424.36401     787.5576     632.5335   1424.36401     787.5576     632.5335
   1424.34875     785.8931     633.5456   1424.34875     785.8931     633.5456
   1424.33350     786.7920     632.3889   1424.33350     786.7920     632.3889
   1424.31824     785.8943     632.7933   1424.31824     785.8943     632.7933
   1424.30298     785.5898     631.6942   1424.30298     785.5898     631.6942
   1424.28772     785.3499     632.1699   1424.28772     785.3499     632.1699
   1424.27246     784.3314     631.9398   1424.27246     784.3314     631.9398
   1424.25720     783.4616     631.5794   1424.25720     783.4616     631.5794
   1424.24194     783.4652     632.6508   1424.24194     783.4652     632.6508
   1424.22668     783.4022     631.3960   1424.22668     783.4022     631.3960
   1424.21143     784.0191     630.9692   1424.21143     784.0191     630.9692
   1424.19617     783.4634     631.4638   1424.19617     783.4634     631.4638
   1424.18091     781.3530     631.3537   1424.18091     781.3530     631.3537
   1424.16565     781.7687     630.4158   1424.16565     781.7687     630.4158
