#     FILENAME=!Skynet_57528_lach-cc-84_20528_20930.cyb.fits
#     BASENAME=Skynet_57528_lach-cc-84_20528_20930
#     SRC_NAME=lach-cc-84
#     OBSERVER=ccmadison16_9505
#     DATE_OBS=2016-05-20T16:09:34.560
#        OBSID=20528
#      SCANNUM=20930
#          MJD=57528.6744
#          UTC=58264
#     SCANTYPE=track
#     DATAMODE=HIRES
#     TUNEFREQ=1420.0000
# Actual_FREQ1=1420.0000
# Actual_FREQ2=1420.0000
#    LO1Tuning=6870.000
#     RFFILTER=1355_1435
#        OBSBW=-15.6250
#        NCHAN=1024 
#        FOCUS=37.0709
#           RA=20:49:10.04
#          DEC=43:48:48.62
#      RA(hrs)=20.819500
#     DEC(deg)=43.813500
#    AZIM(deg)=306.011
#    ELEV(deg)=26.103
#     IFattens=11.00, 10.00
#      WARNING=None
#    TCAL_XL1=7.9635
#    TCAL_YR1=9.1340
#    TCAL_XL2=7.9635
#    TCAL_YR2=9.1340
#     TRX_XL1=11.7060
#     TRX_YR1=11.7060
#     TRX_XL2=11.7060
#     TRX_YR2=11.7060
#        TAVE=1.0000
#Freq1(MHz)          XL1          YR1  Freq2(MHz)          XL2          YR2 

   1427.81250     325.8767     270.5677   1427.81250     325.8767     270.5677
   1427.79724     326.0091     271.9773   1427.79724     326.0091     271.9773
   1427.78198     326.9264     271.8141   1427.78198     326.9264     271.8141
   1427.76672     327.8004     271.9651   1427.76672     327.8004     271.9651
   1427.75146     328.3664     273.0217   1427.75146     328.3664     273.0217
   1427.73621     329.5832     273.6886   1427.73621     329.5832     273.6886
   1427.72095     329.9109     274.3826   1427.72095     329.9109     274.3826
   1427.70569     330.4887     274.4891   1427.70569     330.4887     274.4891
   1427.69043     331.7293     275.8410   1427.69043     331.7293     275.8410
   1427.67517     332.6391     276.9858   1427.67517     332.6391     276.9858
   1427.65991     333.2575     277.5949   1427.65991     333.2575     277.5949
   1427.64465     334.9290     278.9309   1427.64465     334.9290     278.9309
   1427.62939     335.3789     279.4257   1427.62939     335.3789     279.4257
   1427.61414     336.7048     280.8367   1427.61414     336.7048     280.8367
   1427.59888     337.5842     281.8944   1427.59888     337.5842     281.8944
   1427.58362     338.3929     282.9893   1427.58362     338.3929     282.9893
   1427.56836     339.8655     283.7575   1427.56836     339.8655     283.7575
   1427.55310     341.0605     285.1423   1427.55310     341.0605     285.1423
   1427.53784     342.9875     286.0095   1427.53784     342.9875     286.0095
   1427.52258     344.5530     287.5885   1427.52258     344.5530     287.5885
   1427.50732     345.3156     289.1439   1427.50732     345.3156     289.1439
   1427.49207     346.4700     290.1351   1427.49207     346.4700     290.1351
   1427.47681     348.0782     291.8327   1427.47681     348.0782     291.8327
   1427.46155     350.0602     292.8116   1427.46155     350.0602     292.8116
   1427.44629     351.2871     293.9851   1427.44629     351.2871     293.9851
   1427.43103     353.4108     295.5977   1427.43103     353.4108     295.5977
   1427.41577     354.6467     297.2056   1427.41577     354.6467     297.2056
   1427.40051     356.6110     298.5106   1427.40051     356.6110     298.5106
   1427.38525     359.0190     300.5570   1427.38525     359.0190     300.5570
   1427.37000     360.4482     301.6993   1427.37000     360.4482     301.6993
   1427.35474     361.7743     303.7942   1427.35474     361.7743     303.7942
   1427.33948     363.1901     305.1263   1427.33948     363.1901     305.1263
   1427.32422     366.1324     306.9470   1427.32422     366.1324     306.9470
   1427.30896     367.9494     308.7700   1427.30896     367.9494     308.7700
   1427.29370     369.7436     309.6562   1427.29370     369.7436     309.6562
   1427.27844     371.4177     311.8373   1427.27844     371.4177     311.8373
   1427.26318     373.6901     313.6965   1427.26318     373.6901     313.6965
   1427.24792     375.1371     315.0941   1427.24792     375.1371     315.0941
   1427.23267     378.0588     317.6604   1427.23267     378.0588     317.6604
   1427.21741     379.4548     319.0450   1427.21741     379.4548     319.0450
   1427.20215     382.1675     320.7428   1427.20215     382.1675     320.7428
   1427.18689     383.8255     323.1816   1427.18689     383.8255     323.1816
   1427.17163     386.3191     324.9452   1427.17163     386.3191     324.9452
   1427.15637     388.6412     326.9922   1427.15637     388.6412     326.9922
   1427.14111     390.5629     329.1347   1427.14111     390.5629     329.1347
   1427.12585     392.5964     331.1675   1427.12585     392.5964     331.1675
   1427.11060     395.5168     332.2786   1427.11060     395.5168     332.2786
   1427.09534     397.6447     335.1773   1427.09534     397.6447     335.1773
   1427.08008     400.1056     336.9753   1427.08008     400.1056     336.9753
   1427.06482     402.2365     339.7230   1427.06482     402.2365     339.7230
   1427.04956     404.9645     341.6182   1427.04956     404.9645     341.6182
   1427.03430     406.8164     343.4921   1427.03430     406.8164     343.4921
   1427.01904     409.5846     345.5905   1427.01904     409.5846     345.5905
   1427.00378     411.5153     347.7892   1427.00378     411.5153     347.7892
   1426.98853     414.6602     349.5107   1426.98853     414.6602     349.5107
   1426.97327     417.0112     352.3667   1426.97327     417.0112     352.3667
   1426.95801     419.7378     353.8978   1426.95801     419.7378     353.8978
   1426.94275     422.4369     356.2944   1426.94275     422.4369     356.2944
   1426.92749     424.3438     358.8303   1426.92749     424.3438     358.8303
   1426.91223     427.5310     360.7071   1426.91223     427.5310     360.7071
   1426.89697     429.9543     362.7897   1426.89697     429.9543     362.7897
   1426.88171     432.5986     365.8331   1426.88171     432.5986     365.8331
   1426.86646     434.5473     367.7479   1426.86646     434.5473     367.7479
   1426.85120     436.1949     370.2730   1426.85120     436.1949     370.2730
   1426.83594     440.0458     372.2209   1426.83594     440.0458     372.2209
   1426.82068     443.0600     373.9726   1426.82068     443.0600     373.9726
   1426.80542     445.9636     376.5015   1426.80542     445.9636     376.5015
   1426.79016     447.3745     378.8449   1426.79016     447.3745     378.8449
   1426.77490     449.9592     381.2474   1426.77490     449.9592     381.2474
   1426.75964     453.5022     383.2922   1426.75964     453.5022     383.2922
   1426.74438     455.1545     385.1560   1426.74438     455.1545     385.1560
   1426.72913     458.3185     388.0364   1426.72913     458.3185     388.0364
   1426.71387     461.4648     390.4913   1426.71387     461.4648     390.4913
   1426.69861     463.7197     392.6550   1426.69861     463.7197     392.6550
   1426.68335     466.4367     394.8500   1426.68335     466.4367     394.8500
   1426.66809     468.9146     397.1356   1426.66809     468.9146     397.1356
   1426.65283     471.7473     399.5412   1426.65283     471.7473     399.5412
   1426.63757     473.9925     401.6479   1426.63757     473.9925     401.6479
   1426.62231     476.9572     404.7587   1426.62231     476.9572     404.7587
   1426.60706     480.1836     405.9051   1426.60706     480.1836     405.9051
   1426.59180     482.5389     407.8714   1426.59180     482.5389     407.8714
   1426.57654     485.5358     410.9147   1426.57654     485.5358     410.9147
   1426.56128     487.5674     412.9414   1426.56128     487.5674     412.9414
   1426.54602     489.6271     415.4048   1426.54602     489.6271     415.4048
   1426.53076     493.1289     417.8328   1426.53076     493.1289     417.8328
   1426.51550     496.0688     418.9153   1426.51550     496.0688     418.9153
   1426.50024     498.5756     421.5924   1426.50024     498.5756     421.5924
   1426.48499     501.3274     424.4838   1426.48499     501.3274     424.4838
   1426.46973     503.1620     425.8274   1426.46973     503.1620     425.8274
   1426.45447     505.5883     428.7766   1426.45447     505.5883     428.7766
   1426.43921     509.1625     430.2872   1426.43921     509.1625     430.2872
   1426.42395     510.6873     433.0784   1426.42395     510.6873     433.0784
   1426.40869     513.6022     435.2250   1426.40869     513.6022     435.2250
   1426.39343     515.8889     437.0037   1426.39343     515.8889     437.0037
   1426.37817     517.7635     438.6785   1426.37817     517.7635     438.6785
   1426.36292     520.8199     441.5949   1426.36292     520.8199     441.5949
   1426.34766     523.4308     444.3477   1426.34766     523.4308     444.3477
   1426.33240     526.2339     445.3615   1426.33240     526.2339     445.3615
   1426.31714     528.2728     447.6134   1426.31714     528.2728     447.6134
   1426.30188     532.0895     450.3219   1426.30188     532.0895     450.3219
   1426.28662     533.3742     451.8266   1426.28662     533.3742     451.8266
   1426.27136     536.5985     454.3122   1426.27136     536.5985     454.3122
   1426.25610     538.1156     455.7603   1426.25610     538.1156     455.7603
   1426.24084     540.6521     457.8977   1426.24084     540.6521     457.8977
   1426.22559     542.9955     460.2151   1426.22559     542.9955     460.2151
   1426.21033     545.8951     461.7422   1426.21033     545.8951     461.7422
   1426.19507     547.8150     463.7576   1426.19507     547.8150     463.7576
   1426.17981     550.5749     465.8095   1426.17981     550.5749     465.8095
   1426.16455     552.2057     468.0930   1426.16455     552.2057     468.0930
   1426.14929     555.0497     469.3724   1426.14929     555.0497     469.3724
   1426.13403     557.8687     471.1661   1426.13403     557.8687     471.1661
   1426.11877     558.9373     473.6274   1426.11877     558.9373     473.6274
   1426.10352     561.3133     475.4377   1426.10352     561.3133     475.4377
   1426.08826     563.3251     476.9389   1426.08826     563.3251     476.9389
   1426.07300     564.6513     478.6304   1426.07300     564.6513     478.6304
   1426.05774     567.3865     480.3951   1426.05774     567.3865     480.3951
   1426.04248     570.9332     482.2466   1426.04248     570.9332     482.2466
   1426.02722     571.2762     484.6587   1426.02722     571.2762     484.6587
   1426.01196     573.0484     485.4101   1426.01196     573.0484     485.4101
   1425.99670     575.6539     487.4972   1425.99670     575.6539     487.4972
   1425.98145     577.5509     488.9690   1425.98145     577.5509     488.9690
   1425.96619     579.5338     490.6796   1425.96619     579.5338     490.6796
   1425.95093     582.0525     493.5605   1425.95093     582.0525     493.5605
   1425.93567     585.2599     493.7324   1425.93567     585.2599     493.7324
   1425.92041     586.1275     496.3594   1425.92041     586.1275     496.3594
   1425.90515     588.1841     497.4145   1425.90515     588.1841     497.4145
   1425.88989     589.7968     499.8970   1425.88989     589.7968     499.8970
   1425.87463     591.8173     500.6071   1425.87463     591.8173     500.6071
   1425.85938     593.6485     502.2601   1425.85938     593.6485     502.2601
   1425.84412     595.6925     503.7125   1425.84412     595.6925     503.7125
   1425.82886     597.8583     506.1524   1425.82886     597.8583     506.1524
   1425.81360     599.4593     507.4903   1425.81360     599.4593     507.4903
   1425.79834     600.6368     508.5596   1425.79834     600.6368     508.5596
   1425.78308     602.5332     509.6542   1425.78308     602.5332     509.6542
   1425.76782     603.1248     510.8846   1425.76782     603.1248     510.8846
   1425.75256     605.2907     513.0309   1425.75256     605.2907     513.0309
   1425.73730     606.3374     515.1420   1425.73730     606.3374     515.1420
   1425.72205     608.7897     515.5585   1425.72205     608.7897     515.5585
   1425.70679     610.8456     517.6132   1425.70679     610.8456     517.6132
   1425.69153     611.5327     518.5866   1425.69153     611.5327     518.5866
   1425.67627     613.1725     520.0162   1425.67627     613.1725     520.0162
   1425.66101     614.7457     520.7456   1425.66101     614.7457     520.7456
   1425.64575     616.3722     523.1902   1425.64575     616.3722     523.1902
   1425.63049     618.0228     523.7728   1425.63049     618.0228     523.7728
   1425.61523     619.4656     524.9860   1425.61523     619.4656     524.9860
   1425.59998     620.8458     527.8963   1425.59998     620.8458     527.8963
   1425.58472     621.4750     528.7420   1425.58472     621.4750     528.7420
   1425.56946     623.1732     529.7562   1425.56946     623.1732     529.7562
   1425.55420     624.8215     530.7634   1425.55420     624.8215     530.7634
   1425.53894     626.4359     532.5288   1425.53894     626.4359     532.5288
   1425.52368     626.0853     533.3573   1425.52368     626.0853     533.3573
   1425.50842     627.4630     534.5446   1425.50842     627.4630     534.5446
   1425.49316     628.2161     536.4458   1425.49316     628.2161     536.4458
   1425.47791     631.5304     536.8622   1425.47791     631.5304     536.8622
   1425.46265     631.6962     538.2032   1425.46265     631.6962     538.2032
   1425.44739     632.8804     539.4600   1425.44739     632.8804     539.4600
   1425.43213     633.6238     540.2327   1425.43213     633.6238     540.2327
   1425.41687     635.7559     540.9998   1425.41687     635.7559     540.9998
   1425.40161     635.9312     542.9303   1425.40161     635.9312     542.9303
   1425.38635     636.2221     544.3773   1425.38635     636.2221     544.3773
   1425.37109     637.8038     544.9470   1425.37109     637.8038     544.9470
   1425.35583     638.6582     546.0635   1425.35583     638.6582     546.0635
   1425.34058     639.3211     547.8220   1425.34058     639.3211     547.8220
   1425.32532     640.9477     549.3671   1425.32532     640.9477     549.3671
   1425.31006     642.2410     549.0902   1425.31006     642.2410     549.0902
   1425.29480     642.4139     551.3159   1425.29480     642.4139     551.3159
   1425.27954     643.5406     551.2551   1425.27954     643.5406     551.2551
   1425.26428     644.0633     552.5052   1425.26428     644.0633     552.5052
   1425.24902     644.3566     553.4768   1425.24902     644.3566     553.4768
   1425.23376     645.5154     553.7141   1425.23376     645.5154     553.7141
   1425.21851     647.6539     554.3882   1425.21851     647.6539     554.3882
   1425.20325     647.4292     557.0025   1425.20325     647.4292     557.0025
   1425.18799     647.8585     557.0790   1425.18799     647.8585     557.0790
   1425.17273     647.6313     558.4784   1425.17273     647.6313     558.4784
   1425.15747     649.0562     559.2399   1425.15747     649.0562     559.2399
   1425.14221     649.8129     559.7331   1425.14221     649.8129     559.7331
   1425.12695     650.8152     561.4658   1425.12695     650.8152     561.4658
   1425.11169     651.4799     561.6836   1425.11169     651.4799     561.6836
   1425.09644     651.1462     562.9117   1425.09644     651.1462     562.9117
   1425.08118     652.1566     563.4832   1425.08118     652.1566     563.4832
   1425.06592     652.7863     564.7556   1425.06592     652.7863     564.7556
   1425.05066     653.8859     565.7401   1425.05066     653.8859     565.7401
   1425.03540     654.3713     566.8718   1425.03540     654.3713     566.8718
   1425.02014     654.1082     567.4050   1425.02014     654.1082     567.4050
   1425.00488     654.5879     568.7451   1425.00488     654.5879     568.7451
   1424.98962     655.4551     569.3577   1424.98962     655.4551     569.3577
   1424.97437     656.2358     569.8855   1424.97437     656.2358     569.8855
   1424.95911     656.5630     571.2916   1424.95911     656.5630     571.2916
   1424.94385     657.0110     571.3331   1424.94385     657.0110     571.3331
   1424.92859     657.7905     573.1102   1424.92859     657.7905     573.1102
   1424.91333     657.5460     573.1335   1424.91333     657.5460     573.1335
   1424.89807     658.9081     574.7253   1424.89807     658.9081     574.7253
   1424.88281     658.5618     574.9702   1424.88281     658.5618     574.9702
   1424.86755     659.0538     575.9813   1424.86755     659.0538     575.9813
   1424.85229     658.7489     576.5964   1424.85229     658.7489     576.5964
   1424.83704     659.2007     576.9022   1424.83704     659.2007     576.9022
   1424.82178     660.4847     576.5863   1424.82178     660.4847     576.5863
   1424.80652     659.6557     578.8519   1424.80652     659.6557     578.8519
   1424.79126     659.9824     578.9164   1424.79126     659.9824     578.9164
   1424.77600     659.6978     579.2222   1424.77600     659.6978     579.2222
   1424.76074     660.2600     580.5979   1424.76074     660.2600     580.5979
   1424.74548     661.2338     580.9972   1424.74548     661.2338     580.9972
   1424.73022     660.8273     581.2672   1424.73022     660.8273     581.2672
   1424.71497     661.1579     583.3418   1424.71497     661.1579     583.3418
   1424.69971     661.4313     583.8391   1424.69971     661.4313     583.8391
   1424.68445     661.1478     582.7692   1424.68445     661.1478     582.7692
   1424.66919     661.5760     584.7516   1424.66919     661.5760     584.7516
   1424.65393     661.7715     585.3347   1424.65393     661.7715     585.3347
   1424.63867     661.8712     585.5958   1424.63867     661.8712     585.5958
   1424.62341     661.8710     585.3373   1424.62341     661.8710     585.3373
   1424.60815     661.7529     587.3210   1424.60815     661.7529     587.3210
   1424.59290     661.3826     588.5487   1424.59290     661.3826     588.5487
   1424.57764     662.9361     588.2504   1424.57764     662.9361     588.2504
   1424.56238     661.6757     588.9735   1424.56238     661.6757     588.9735
   1424.54712     662.5811     589.5989   1424.54712     662.5811     589.5989
   1424.53186     662.3769     589.1257   1424.53186     662.3769     589.1257
   1424.51660     663.0974     590.5081   1424.51660     663.0974     590.5081
   1424.50134     662.3878     591.7590   1424.50134     662.3878     591.7590
   1424.48608     662.9054     590.6811   1424.48608     662.9054     590.6811
   1424.47083     663.0359     593.1951   1424.47083     663.0359     593.1951
   1424.45557     662.6555     593.4592   1424.45557     662.6555     593.4592
   1424.44031     663.3882     592.8402   1424.44031     663.3882     592.8402
   1424.42505     662.3799     593.3477   1424.42505     662.3799     593.3477
   1424.40979     662.2446     594.3293   1424.40979     662.2446     594.3293
   1424.39453     663.2274     595.8083   1424.39453     663.2274     595.8083
   1424.37927     662.4089     595.5259   1424.37927     662.4089     595.5259
   1424.36401     663.1829     596.1080   1424.36401     663.1829     596.1080
   1424.34875     663.2114     596.8022   1424.34875     663.2114     596.8022
   1424.33350     662.8027     596.9835   1424.33350     662.8027     596.9835
   1424.31824     663.4185     597.4617   1424.31824     663.4185     597.4617
   1424.30298     662.1826     598.3818   1424.30298     662.1826     598.3818
   1424.28772     662.3674     599.1275   1424.28772     662.3674     599.1275
   1424.27246     661.9473     599.6408   1424.27246     661.9473     599.6408
   1424.25720     662.0952     600.3126   1424.25720     662.0952     600.3126
   1424.24194     661.3052     600.3337   1424.24194     661.3052     600.3337
   1424.22668     661.6255     599.8373   1424.22668     661.6255     599.8373
   1424.21143     661.5135     600.1681   1424.21143     661.5135     600.1681
   1424.19617     661.1293     601.3947   1424.19617     661.1293     601.3947
   1424.18091     661.0094     600.9149   1424.18091     661.0094     600.9149
   1424.16565     661.6405     601.2223   1424.16565     661.6405     601.2223
