#     FILENAME=!Skynet_57528_lach-cc-210_20617_21049.cyb.fits
#     BASENAME=Skynet_57528_lach-cc-210_20617_21049
#     SRC_NAME=lach-cc-210
#     OBSERVER=ccmadison16_9505
#     DATE_OBS=2016-05-20T20:14:50.620
#        OBSID=20617
#      SCANNUM=21049
#          MJD=57528.8447
#          UTC=72980
#     SCANTYPE=track
#     DATAMODE=HIRES
#     TUNEFREQ=1420.0000
# Actual_FREQ1=1420.0000
# Actual_FREQ2=1420.0000
#    LO1Tuning=6870.000
#     RFFILTER=1355_1435
#        OBSBW=-15.6250
#        NCHAN=1024 
#        FOCUS=37.0489
#           RA=06:46:03.76
#          DEC=02:36:31.97
#      RA(hrs)=6.767700
#     DEC(deg)=2.608900
#    AZIM(deg)=181.282
#    ELEV(deg)=54.002
#     IFattens=10.00, 9.00
#      WARNING=None
#    TCAL_XL1=7.9635
#    TCAL_YR1=9.1340
#    TCAL_XL2=7.9635
#    TCAL_YR2=9.1340
#     TRX_XL1=11.7060
#     TRX_YR1=11.7060
#     TRX_XL2=11.7060
#     TRX_YR2=11.7060
#        TAVE=1.0000
#Freq1(MHz)          XL1          YR1  Freq2(MHz)          XL2          YR2 

   1427.81250     357.1197     264.0294   1427.81250     357.1197     264.0294
   1427.79724     357.6088     264.4823   1427.79724     357.6088     264.4823
   1427.78198     358.5911     265.1898   1427.78198     358.5911     265.1898
   1427.76672     359.4167     265.8006   1427.76672     359.4167     265.8006
   1427.75146     359.6014     266.2513   1427.75146     359.6014     266.2513
   1427.73621     360.6442     267.3880   1427.73621     360.6442     267.3880
   1427.72095     361.4886     268.3365   1427.72095     361.4886     268.3365
   1427.70569     363.2312     269.1252   1427.70569     363.2312     269.1252
   1427.69043     363.2220     270.4255   1427.69043     363.2220     270.4255
   1427.67517     364.1313     270.7589   1427.67517     364.1313     270.7589
   1427.65991     365.8125     272.3682   1427.65991     365.8125     272.3682
   1427.64465     366.8899     273.1944   1427.64465     366.8899     273.1944
   1427.62939     367.3010     274.6670   1427.62939     367.3010     274.6670
   1427.61414     368.7506     275.6135   1427.61414     368.7506     275.6135
   1427.59888     370.1696     276.6891   1427.59888     370.1696     276.6891
   1427.58362     371.5579     277.6167   1427.58362     371.5579     277.6167
   1427.56836     372.5462     278.9268   1427.56836     372.5462     278.9268
   1427.55310     374.2704     280.5126   1427.55310     374.2704     280.5126
   1427.53784     375.2764     281.9618   1427.53784     375.2764     281.9618
   1427.52258     376.7637     283.2194   1427.52258     376.7637     283.2194
   1427.50732     379.1856     284.5067   1427.50732     379.1856     284.5067
   1427.49207     380.0906     285.7296   1427.49207     380.0906     285.7296
   1427.47681     381.0038     287.5180   1427.47681     381.0038     287.5180
   1427.46155     383.6799     288.9548   1427.46155     383.6799     288.9548
   1427.44629     385.3035     289.7847   1427.44629     385.3035     289.7847
   1427.43103     387.0802     292.0961   1427.43103     387.0802     292.0961
   1427.41577     388.5558     293.3745   1427.41577     388.5558     293.3745
   1427.40051     391.0004     294.5377   1427.40051     391.0004     294.5377
   1427.38525     393.1157     296.7063   1427.38525     393.1157     296.7063
   1427.37000     394.3251     298.2671   1427.37000     394.3251     298.2671
   1427.35474     396.1161     300.3182   1427.35474     396.1161     300.3182
   1427.33948     398.3793     301.7908   1427.33948     398.3793     301.7908
   1427.32422     400.2850     303.6738   1427.32422     400.2850     303.6738
   1427.30896     402.2297     305.4476   1427.30896     402.2297     305.4476
   1427.29370     404.3657     306.9103   1427.29370     404.3657     306.9103
   1427.27844     406.8577     309.6683   1427.27844     406.8577     309.6683
   1427.26318     409.2206     310.9605   1427.26318     409.2206     310.9605
   1427.24792     411.3562     312.7342   1427.24792     411.3562     312.7342
   1427.23267     413.2448     314.7351   1427.23267     413.2448     314.7351
   1427.21741     415.8539     317.0312   1427.21741     415.8539     317.0312
   1427.20215     418.4809     318.9206   1427.20215     418.4809     318.9206
   1427.18689     419.7231     320.7948   1427.18689     419.7231     320.7948
   1427.17163     423.3222     323.5130   1427.17163     423.3222     323.5130
   1427.15637     424.5143     325.1302   1427.15637     424.5143     325.1302
   1427.14111     427.0341     327.0630   1427.14111     427.0341     327.0630
   1427.12585     429.8032     329.3246   1427.12585     429.8032     329.3246
   1427.11060     432.1951     330.9385   1427.11060     432.1951     330.9385
   1427.09534     435.1111     333.0784   1427.09534     435.1111     333.0784
   1427.08008     437.3631     335.4076   1427.08008     437.3631     335.4076
   1427.06482     440.6199     337.8239   1427.06482     440.6199     337.8239
   1427.04956     443.3188     340.5567   1427.04956     443.3188     340.5567
   1427.03430     444.4673     342.3692   1427.03430     444.4673     342.3692
   1427.01904     448.3365     344.5662   1427.01904     448.3365     344.5662
   1427.00378     450.1869     347.4412   1427.00378     450.1869     347.4412
   1426.98853     452.8820     349.6352   1426.98853     452.8820     349.6352
   1426.97327     456.2686     351.6802   1426.97327     456.2686     351.6802
   1426.95801     458.1125     353.8680   1426.95801     458.1125     353.8680
   1426.94275     461.4621     356.2509   1426.94275     461.4621     356.2509
   1426.92749     464.1860     358.6554   1426.92749     464.1860     358.6554
   1426.91223     466.2075     361.1205   1426.91223     466.2075     361.1205
   1426.89697     469.3569     363.4081   1426.89697     469.3569     363.4081
   1426.88171     472.1290     365.7461   1426.88171     472.1290     365.7461
   1426.86646     475.1431     368.2102   1426.86646     475.1431     368.2102
   1426.85120     478.1644     370.4770   1426.85120     478.1644     370.4770
   1426.83594     480.4568     372.9478   1426.83594     480.4568     372.9478
   1426.82068     482.5504     375.9250   1426.82068     482.5504     375.9250
   1426.80542     486.2863     378.5282   1426.80542     486.2863     378.5282
   1426.79016     488.8084     380.7515   1426.79016     488.8084     380.7515
   1426.77490     491.6487     383.6872   1426.77490     491.6487     383.6872
   1426.75964     494.8972     385.5464   1426.75964     494.8972     385.5464
   1426.74438     497.5497     387.8620   1426.74438     497.5497     387.8620
   1426.72913     499.8830     390.3929   1426.72913     499.8830     390.3929
   1426.71387     503.2502     393.5329   1426.71387     503.2502     393.5329
   1426.69861     506.0705     395.5211   1426.69861     506.0705     395.5211
   1426.68335     508.7397     397.5223   1426.68335     508.7397     397.5223
   1426.66809     511.6894     399.9527   1426.66809     511.6894     399.9527
   1426.65283     513.0660     402.3495   1426.65283     513.0660     402.3495
   1426.63757     517.8628     405.0032   1426.63757     517.8628     405.0032
   1426.62231     520.7488     408.3041   1426.62231     520.7488     408.3041
   1426.60706     523.6023     410.3928   1426.60706     523.6023     410.3928
   1426.59180     525.6899     412.7173   1426.59180     525.6899     412.7173
   1426.57654     528.8489     415.8350   1426.57654     528.8489     415.8350
   1426.56128     530.9045     417.3448   1426.56128     530.9045     417.3448
   1426.54602     534.8348     420.4858   1426.54602     534.8348     420.4858
   1426.53076     537.1527     423.4014   1426.53076     537.1527     423.4014
   1426.51550     539.8169     425.7448   1426.51550     539.8169     425.7448
   1426.50024     542.8560     428.1647   1426.50024     542.8560     428.1647
   1426.48499     545.4341     431.1549   1426.48499     545.4341     431.1549
   1426.46973     547.3495     433.0081   1426.46973     547.3495     433.0081
   1426.45447     550.1722     435.3673   1426.45447     550.1722     435.3673
   1426.43921     553.6153     437.8773   1426.43921     553.6153     437.8773
   1426.42395     556.9922     440.0274   1426.42395     556.9922     440.0274
   1426.40869     559.0728     442.7029   1426.40869     559.0728     442.7029
   1426.39343     562.2274     445.4529   1426.39343     562.2274     445.4529
   1426.37817     564.9655     448.2348   1426.37817     564.9655     448.2348
   1426.36292     566.9781     450.5732   1426.36292     566.9781     450.5732
   1426.34766     569.2850     452.8436   1426.34766     569.2850     452.8436
   1426.33240     572.5600     454.8443   1426.33240     572.5600     454.8443
   1426.31714     574.3655     457.4304   1426.31714     574.3655     457.4304
   1426.30188     577.9568     459.2024   1426.30188     577.9568     459.2024
   1426.28662     580.8317     462.4008   1426.28662     580.8317     462.4008
   1426.27136     582.9144     463.8016   1426.27136     582.9144     463.8016
   1426.25610     585.5735     467.4661   1426.25610     585.5735     467.4661
   1426.24084     588.2278     469.2956   1426.24084     588.2278     469.2956
   1426.22559     589.9327     471.5194   1426.22559     589.9327     471.5194
   1426.21033     593.4338     473.5748   1426.21033     593.4338     473.5748
   1426.19507     595.9722     476.1723   1426.19507     595.9722     476.1723
   1426.17981     598.2000     478.7554   1426.17981     598.2000     478.7554
   1426.16455     600.2578     480.7891   1426.16455     600.2578     480.7891
   1426.14929     602.3906     482.6444   1426.14929     602.3906     482.6444
   1426.13403     604.9136     485.5692   1426.13403     604.9136     485.5692
   1426.11877     607.3272     487.8379   1426.11877     607.3272     487.8379
   1426.10352     609.6436     489.6417   1426.10352     609.6436     489.6417
   1426.08826     612.7441     491.8899   1426.08826     612.7441     491.8899
   1426.07300     615.9250     494.6336   1426.07300     615.9250     494.6336
   1426.05774     616.7593     496.6841   1426.05774     616.7593     496.6841
   1426.04248     619.8277     498.3183   1426.04248     619.8277     498.3183
   1426.02722     620.9207     500.8979   1426.02722     620.9207     500.8979
   1426.01196     623.7392     503.6986   1426.01196     623.7392     503.6986
   1425.99670     625.0725     505.3504   1425.99670     625.0725     505.3504
   1425.98145     628.6721     507.8898   1425.98145     628.6721     507.8898
   1425.96619     630.1676     509.1861   1425.96619     630.1676     509.1861
   1425.95093     632.8971     511.2568   1425.95093     632.8971     511.2568
   1425.93567     634.5516     513.3708   1425.93567     634.5516     513.3708
   1425.92041     636.9323     514.9730   1425.92041     636.9323     514.9730
   1425.90515     638.1218     517.6356   1425.90515     638.1218     517.6356
   1425.88989     640.1075     519.1675   1425.88989     640.1075     519.1675
   1425.87463     642.2836     521.5819   1425.87463     642.2836     521.5819
   1425.85938     644.0333     523.8072   1425.85938     644.0333     523.8072
   1425.84412     645.6015     525.2136   1425.84412     645.6015     525.2136
   1425.82886     647.4821     527.5003   1425.82886     647.4821     527.5003
   1425.81360     650.1319     528.8613   1425.81360     650.1319     528.8613
   1425.79834     651.4391     531.8272   1425.79834     651.4391     531.8272
   1425.78308     652.7872     533.3498   1425.78308     652.7872     533.3498
   1425.76782     655.2554     534.7688   1425.76782     655.2554     534.7688
   1425.75256     656.9699     535.3340   1425.75256     656.9699     535.3340
   1425.73730     658.5405     539.0851   1425.73730     658.5405     539.0851
   1425.72205     661.6944     540.8084   1425.72205     661.6944     540.8084
   1425.70679     662.3104     542.0122   1425.70679     662.3104     542.0122
   1425.69153     663.0144     543.6371   1425.69153     663.0144     543.6371
   1425.67627     664.7144     546.0747   1425.67627     664.7144     546.0747
   1425.66101     667.1760     547.0060   1425.66101     667.1760     547.0060
   1425.64575     668.1454     548.9877   1425.64575     668.1454     548.9877
   1425.63049     669.0209     551.2642   1425.63049     669.0209     551.2642
   1425.61523     671.4032     552.1806   1425.61523     671.4032     552.1806
   1425.59998     673.8033     554.1925   1425.59998     673.8033     554.1925
   1425.58472     674.0072     556.6237   1425.58472     674.0072     556.6237
   1425.56946     674.2385     556.8195   1425.56946     674.2385     556.8195
   1425.55420     676.6797     559.7910   1425.55420     676.6797     559.7910
   1425.53894     678.3639     560.8046   1425.53894     678.3639     560.8046
   1425.52368     680.2159     561.7234   1425.52368     680.2159     561.7234
   1425.50842     679.4501     564.6505   1425.50842     679.4501     564.6505
   1425.49316     681.5129     565.8596   1425.49316     681.5129     565.8596
   1425.47791     682.9288     566.4698   1425.47791     682.9288     566.4698
   1425.46265     683.5157     568.6046   1425.46265     683.5157     568.6046
   1425.44739     685.6310     569.1648   1425.44739     685.6310     569.1648
   1425.43213     687.4711     571.5738   1425.43213     687.4711     571.5738
   1425.41687     687.7834     573.4213   1425.41687     687.7834     573.4213
   1425.40161     688.7000     574.6979   1425.40161     688.7000     574.6979
   1425.38635     690.3939     575.1818   1425.38635     690.3939     575.1818
   1425.37109     690.4186     575.8972   1425.37109     690.4186     575.8972
   1425.35583     690.9137     578.3647   1425.35583     690.9137     578.3647
   1425.34058     692.1624     578.8417   1425.34058     692.1624     578.8417
   1425.32532     694.6202     581.1476   1425.32532     694.6202     581.1476
   1425.31006     694.7050     581.9528   1425.31006     694.7050     581.9528
   1425.29480     694.2457     584.2294   1425.29480     694.2457     584.2294
   1425.27954     696.3290     584.4516   1425.27954     696.3290     584.4516
   1425.26428     696.8171     586.3619   1425.26428     696.8171     586.3619
   1425.24902     698.7274     586.5839   1425.24902     698.7274     586.5839
   1425.23376     698.8541     588.2723   1425.23376     698.8541     588.2723
   1425.21851     699.0613     589.0105   1425.21851     699.0613     589.0105
   1425.20325     701.0086     590.8381   1425.20325     701.0086     590.8381
   1425.18799     700.9188     591.6086   1425.18799     700.9188     591.6086
   1425.17273     701.1154     592.8527   1425.17273     701.1154     592.8527
   1425.15747     702.4144     594.6014   1425.15747     702.4144     594.6014
   1425.14221     702.5410     596.5407   1425.14221     702.5410     596.5407
   1425.12695     704.3173     596.1597   1425.12695     704.3173     596.1597
   1425.11169     703.0447     596.7422   1425.11169     703.0447     596.7422
   1425.09644     704.2107     598.6306   1425.09644     704.2107     598.6306
   1425.08118     704.0309     599.7010   1425.08118     704.0309     599.7010
   1425.06592     705.5063     600.9393   1425.06592     705.5063     600.9393
   1425.05066     706.2729     600.6096   1425.05066     706.2729     600.6096
   1425.03540     706.2273     603.0848   1425.03540     706.2273     603.0848
   1425.02014     706.5898     603.1172   1425.02014     706.5898     603.1172
   1425.00488     708.8038     604.9394   1425.00488     708.8038     604.9394
   1424.98962     708.7981     605.6585   1424.98962     708.7981     605.6585
   1424.97437     708.7348     606.2108   1424.97437     708.7348     606.2108
   1424.95911     709.2108     606.2894   1424.95911     709.2108     606.2894
   1424.94385     709.1772     607.0195   1424.94385     709.1772     607.0195
   1424.92859     709.4349     608.5495   1424.92859     709.4349     608.5495
   1424.91333     709.5181     608.4316   1424.91333     709.5181     608.4316
   1424.89807     711.3730     610.6575   1424.89807     711.3730     610.6575
   1424.88281     710.2913     609.4308   1424.88281     710.2913     609.4308
   1424.86755     710.9575     610.4894   1424.86755     710.9575     610.4894
   1424.85229     709.8336     611.9698   1424.85229     709.8336     611.9698
   1424.83704     711.0648     611.8626   1424.83704     711.0648     611.8626
   1424.82178     711.4080     614.4620   1424.82178     711.4080     614.4620
   1424.80652     711.6252     613.5991   1424.80652     711.6252     613.5991
   1424.79126     711.5978     614.9290   1424.79126     711.5978     614.9290
   1424.77600     711.8929     615.7492   1424.77600     711.8929     615.7492
   1424.76074     712.6686     616.8894   1424.76074     712.6686     616.8894
   1424.74548     711.5685     616.9491   1424.74548     711.5685     616.9491
   1424.73022     712.6251     617.6633   1424.73022     712.6251     617.6633
   1424.71497     712.0430     617.3076   1424.71497     712.0430     617.3076
   1424.69971     713.2560     617.8041   1424.69971     713.2560     617.8041
   1424.68445     712.8107     619.1352   1424.68445     712.8107     619.1352
   1424.66919     712.2516     620.1047   1424.66919     712.2516     620.1047
   1424.65393     714.3492     620.8123   1424.65393     714.3492     620.8123
   1424.63867     712.5924     620.4518   1424.63867     712.5924     620.4518
   1424.62341     713.3235     621.4647   1424.62341     713.3235     621.4647
   1424.60815     711.7332     622.2434   1424.60815     711.7332     622.2434
   1424.59290     712.8353     622.3447   1424.59290     712.8353     622.3447
   1424.57764     712.8759     622.8442   1424.57764     712.8759     622.8442
   1424.56238     712.5250     623.1070   1424.56238     712.5250     623.1070
   1424.54712     713.1522     623.6410   1424.54712     713.1522     623.6410
   1424.53186     711.8809     624.6719   1424.53186     711.8809     624.6719
   1424.51660     712.8576     624.5491   1424.51660     712.8576     624.5491
   1424.50134     713.0750     624.9263   1424.50134     713.0750     624.9263
   1424.48608     712.3891     625.9545   1424.48608     712.3891     625.9545
   1424.47083     712.7440     626.3622   1424.47083     712.7440     626.3622
   1424.45557     710.3176     625.7988   1424.45557     710.3176     625.7988
   1424.44031     711.0098     625.9824   1424.44031     711.0098     625.9824
   1424.42505     711.8849     626.4797   1424.42505     711.8849     626.4797
   1424.40979     711.2304     626.7110   1424.40979     711.2304     626.7110
   1424.39453     711.6452     627.7397   1424.39453     711.6452     627.7397
   1424.37927     711.9172     627.3407   1424.37927     711.9172     627.3407
   1424.36401     711.3606     627.5830   1424.36401     711.3606     627.5830
   1424.34875     711.7636     627.7971   1424.34875     711.7636     627.7971
   1424.33350     710.2245     627.4938   1424.33350     710.2245     627.4938
   1424.31824     711.1136     628.6137   1424.31824     711.1136     628.6137
   1424.30298     709.9752     628.5520   1424.30298     709.9752     628.5520
   1424.28772     710.1769     629.4310   1424.28772     710.1769     629.4310
   1424.27246     708.7790     628.7073   1424.27246     708.7790     628.7073
   1424.25720     709.4572     629.7831   1424.25720     709.4572     629.7831
   1424.24194     710.4183     630.0444   1424.24194     710.4183     630.0444
   1424.22668     709.7096     629.3766   1424.22668     709.7096     629.3766
   1424.21143     708.4312     630.3895   1424.21143     708.4312     630.3895
   1424.19617     709.0620     630.1695   1424.19617     709.0620     630.1695
   1424.18091     708.0817     629.2808   1424.18091     708.0817     629.2808
   1424.16565     709.6595     628.5180   1424.16565     709.6595     628.5180
