#     FILENAME=!Skynet_57528_lach-hhg-109_20374_20916.cyb.fits
#     BASENAME=Skynet_57528_lach-hhg-109_20374_20916
#     SRC_NAME=lach-hhg-109
#     OBSERVER=hhgmadison16_9500
#     DATE_OBS=2016-05-20T15:41:25.250
#        OBSID=20374
#      SCANNUM=20916
#          MJD=57528.6548
#          UTC=56574
#     SCANTYPE=track
#     DATAMODE=HIRES
#     TUNEFREQ=1420.0000
# Actual_FREQ1=1420.0000
# Actual_FREQ2=1420.0000
#    LO1Tuning=6870.000
#     RFFILTER=1355_1435
#        OBSBW=-15.6250
#        NCHAN=1024 
#        FOCUS=37.0709
#           RA=22:57:19.29
#          DEC=59:44:47.62
#      RA(hrs)=22.955400
#     DEC(deg)=59.746600
#    AZIM(deg)=320.568
#    ELEV(deg)=52.237
#     IFattens=10.00, 9.00
#      WARNING=None
#    TCAL_XL1=7.9635
#    TCAL_YR1=9.1340
#    TCAL_XL2=7.9635
#    TCAL_YR2=9.1340
#     TRX_XL1=11.7060
#     TRX_YR1=11.7060
#     TRX_XL2=11.7060
#     TRX_YR2=11.7060
#        TAVE=1.0000
#Freq1(MHz)          XL1          YR1  Freq2(MHz)          XL2          YR2 

   1427.81250     379.8898     289.4761   1427.81250     379.8898     289.4761
   1427.79724     380.4659     290.5233   1427.79724     380.4659     290.5233
   1427.78198     381.3984     291.0416   1427.78198     381.3984     291.0416
   1427.76672     381.9286     292.3674   1427.76672     381.9286     292.3674
   1427.75146     382.3527     293.4139   1427.75146     382.3527     293.4139
   1427.73621     383.5268     293.7941   1427.73621     383.5268     293.7941
   1427.72095     384.9562     295.4360   1427.72095     384.9562     295.4360
   1427.70569     385.8840     296.5696   1427.70569     385.8840     296.5696
   1427.69043     386.1141     297.8319   1427.69043     386.1141     297.8319
   1427.67517     387.6396     298.8618   1427.67517     387.6396     298.8618
   1427.65991     388.8517     299.8220   1427.65991     388.8517     299.8220
   1427.64465     389.9035     300.9162   1427.64465     389.9035     300.9162
   1427.62939     390.4894     302.6747   1427.62939     390.4894     302.6747
   1427.61414     392.5919     303.4819   1427.61414     392.5919     303.4819
   1427.59888     393.4980     304.7985   1427.59888     393.4980     304.7985
   1427.58362     395.6083     306.6413   1427.58362     395.6083     306.6413
   1427.56836     396.9810     307.8185   1427.56836     396.9810     307.8185
   1427.55310     398.3626     309.1731   1427.55310     398.3626     309.1731
   1427.53784     399.9226     310.4482   1427.53784     399.9226     310.4482
   1427.52258     401.8825     311.9807   1427.52258     401.8825     311.9807
   1427.50732     403.4757     313.4733   1427.50732     403.4757     313.4733
   1427.49207     405.0020     314.6134   1427.49207     405.0020     314.6134
   1427.47681     406.8381     317.0847   1427.47681     406.8381     317.0847
   1427.46155     408.7378     318.4184   1427.46155     408.7378     318.4184
   1427.44629     410.8675     319.4496   1427.44629     410.8675     319.4496
   1427.43103     412.1249     321.7168   1427.43103     412.1249     321.7168
   1427.41577     413.9282     324.1511   1427.41577     413.9282     324.1511
   1427.40051     415.8779     325.2858   1427.40051     415.8779     325.2858
   1427.38525     417.5186     327.2895   1427.38525     417.5186     327.2895
   1427.37000     421.2401     328.7389   1427.37000     421.2401     328.7389
   1427.35474     422.8828     330.8016   1427.35474     422.8828     330.8016
   1427.33948     425.1638     332.4085   1427.33948     425.1638     332.4085
   1427.32422     427.0345     334.4168   1427.32422     427.0345     334.4168
   1427.30896     429.9748     336.6667   1427.30896     429.9748     336.6667
   1427.29370     430.9250     338.1920   1427.29370     430.9250     338.1920
   1427.27844     433.6799     340.0798   1427.27844     433.6799     340.0798
   1427.26318     436.4717     342.2228   1427.26318     436.4717     342.2228
   1427.24792     438.8322     344.1615   1427.24792     438.8322     344.1615
   1427.23267     441.0893     346.1933   1427.23267     441.0893     346.1933
   1427.21741     443.6018     348.3265   1427.21741     443.6018     348.3265
   1427.20215     446.3091     350.3620   1427.20215     446.3091     350.3620
   1427.18689     449.3628     351.8822   1427.18689     449.3628     351.8822
   1427.17163     451.6382     354.5175   1427.17163     451.6382     354.5175
   1427.15637     453.8499     356.4476   1427.15637     453.8499     356.4476
   1427.14111     456.9327     358.9442   1427.14111     456.9327     358.9442
   1427.12585     458.7180     360.7811   1427.12585     458.7180     360.7811
   1427.11060     462.1784     362.8271   1427.11060     462.1784     362.8271
   1427.09534     464.9531     365.2272   1427.09534     464.9531     365.2272
   1427.08008     467.6686     367.5928   1427.08008     467.6686     367.5928
   1427.06482     470.7916     369.6285   1427.06482     470.7916     369.6285
   1427.04956     474.0491     371.2894   1427.04956     474.0491     371.2894
   1427.03430     476.4977     373.9230   1427.03430     476.4977     373.9230
   1427.01904     479.7489     376.4638   1427.01904     479.7489     376.4638
   1427.00378     481.8096     378.6336   1427.00378     481.8096     378.6336
   1426.98853     485.4311     380.6899   1426.98853     485.4311     380.6899
   1426.97327     488.3267     383.5632   1426.97327     488.3267     383.5632
   1426.95801     490.8963     385.2724   1426.95801     490.8963     385.2724
   1426.94275     493.6407     387.6563   1426.94275     493.6407     387.6563
   1426.92749     497.8202     390.2332   1426.92749     497.8202     390.2332
   1426.91223     499.8130     392.7368   1426.91223     499.8130     392.7368
   1426.89697     501.8190     394.2364   1426.89697     501.8190     394.2364
   1426.88171     505.9491     397.1295   1426.88171     505.9491     397.1295
   1426.86646     508.8479     399.1476   1426.86646     508.8479     399.1476
   1426.85120     512.5220     401.7978   1426.85120     512.5220     401.7978
   1426.83594     514.4310     403.6004   1426.83594     514.4310     403.6004
   1426.82068     517.8723     406.5276   1426.82068     517.8723     406.5276
   1426.80542     521.3592     408.4577   1426.80542     521.3592     408.4577
   1426.79016     524.4269     409.8415   1426.79016     524.4269     409.8415
   1426.77490     527.1725     412.6062   1426.77490     527.1725     412.6062
   1426.75964     531.3978     415.5671   1426.75964     531.3978     415.5671
   1426.74438     533.8198     418.4195   1426.74438     533.8198     418.4195
   1426.72913     536.8900     420.4120   1426.72913     536.8900     420.4120
   1426.71387     540.3705     422.1854   1426.71387     540.3705     422.1854
   1426.69861     542.6354     424.5567   1426.69861     542.6354     424.5567
   1426.68335     545.7862     426.4840   1426.68335     545.7862     426.4840
   1426.66809     548.9042     429.3289   1426.66809     548.9042     429.3289
   1426.65283     551.8522     431.9075   1426.65283     551.8522     431.9075
   1426.63757     555.7556     433.8180   1426.63757     555.7556     433.8180
   1426.62231     560.4660     442.1323   1426.62231     560.4660     442.1323
   1426.60706     562.1385     440.0926   1426.60706     562.1385     440.0926
   1426.59180     565.6487     441.2527   1426.59180     565.6487     441.2527
   1426.57654     568.8320     442.4193   1426.57654     568.8320     442.4193
   1426.56128     572.5403     445.1645   1426.56128     572.5403     445.1645
   1426.54602     574.4841     446.8445   1426.54602     574.4841     446.8445
   1426.53076     578.1628     449.2235   1426.53076     578.1628     449.2235
   1426.51550     582.0037     451.1883   1426.51550     582.0037     451.1883
   1426.50024     585.0481     454.4634   1426.50024     585.0481     454.4634
   1426.48499     588.2386     455.6625   1426.48499     588.2386     455.6625
   1426.46973     590.4303     457.6814   1426.46973     590.4303     457.6814
   1426.45447     593.8608     461.1319   1426.45447     593.8608     461.1319
   1426.43921     596.5128     462.6900   1426.43921     596.5128     462.6900
   1426.42395     599.4152     464.4727   1426.42395     599.4152     464.4727
   1426.40869     602.6875     466.9589   1426.40869     602.6875     466.9589
   1426.39343     604.9542     468.5112   1426.39343     604.9542     468.5112
   1426.37817     608.7537     470.3282   1426.37817     608.7537     470.3282
   1426.36292     611.2471     473.4800   1426.36292     611.2471     473.4800
   1426.34766     614.4759     474.7224   1426.34766     614.4759     474.7224
   1426.33240     618.2239     476.4521   1426.33240     618.2239     476.4521
   1426.31714     620.3376     479.5773   1426.31714     620.3376     479.5773
   1426.30188     623.7804     481.1052   1426.30188     623.7804     481.1052
   1426.28662     626.4161     483.6444   1426.28662     626.4161     483.6444
   1426.27136     629.1791     484.7050   1426.27136     629.1791     484.7050
   1426.25610     632.3333     487.3915   1426.25610     632.3333     487.3915
   1426.24084     634.7944     488.5050   1426.24084     634.7944     488.5050
   1426.22559     637.2890     491.4653   1426.22559     637.2890     491.4653
   1426.21033     640.0730     492.0279   1426.21033     640.0730     492.0279
   1426.19507     643.0706     494.5609   1426.19507     643.0706     494.5609
   1426.17981     647.3465     496.6289   1426.17981     647.3465     496.6289
   1426.16455     648.7329     498.6487   1426.16455     648.7329     498.6487
   1426.14929     650.6113     500.2187   1426.14929     650.6113     500.2187
   1426.13403     653.7274     503.3358   1426.13403     653.7274     503.3358
   1426.11877     655.3144     503.7310   1426.11877     655.3144     503.7310
   1426.10352     659.8987     505.6603   1426.10352     659.8987     505.6603
   1426.08826     661.9726     507.4019   1426.08826     661.9726     507.4019
   1426.07300     664.5193     509.2186   1426.07300     664.5193     509.2186
   1426.05774     667.2233     511.2382   1426.05774     667.2233     511.2382
   1426.04248     668.6997     513.4100   1426.04248     668.6997     513.4100
   1426.02722     672.1838     514.3096   1426.02722     672.1838     514.3096
   1426.01196     673.9149     516.9364   1426.01196     673.9149     516.9364
   1425.99670     676.7943     518.2648   1425.99670     676.7943     518.2648
   1425.98145     677.5875     520.2132   1425.98145     677.5875     520.2132
   1425.96619     681.9297     522.0915   1425.96619     681.9297     522.0915
   1425.95093     683.5438     522.5330   1425.95093     683.5438     522.5330
   1425.93567     685.9338     524.7215   1425.93567     685.9338     524.7215
   1425.92041     688.2613     526.1463   1425.92041     688.2613     526.1463
   1425.90515     690.2820     527.5907   1425.90515     690.2820     527.5907
   1425.88989     692.3751     529.2730   1425.88989     692.3751     529.2730
   1425.87463     694.4011     530.9313   1425.87463     694.4011     530.9313
   1425.85938     696.5094     532.0189   1425.85938     696.5094     532.0189
   1425.84412     699.9186     534.2480   1425.84412     699.9186     534.2480
   1425.82886     701.5790     535.4641   1425.82886     701.5790     535.4641
   1425.81360     703.2765     538.0580   1425.81360     703.2765     538.0580
   1425.79834     705.5768     539.5608   1425.79834     705.5768     539.5608
   1425.78308     706.6162     539.6647   1425.78308     706.6162     539.6647
   1425.76782     708.8370     542.8763   1425.76782     708.8370     542.8763
   1425.75256     711.3623     543.2495   1425.75256     711.3623     543.2495
   1425.73730     713.1149     545.1651   1425.73730     713.1149     545.1651
   1425.72205     715.1119     545.8721   1425.72205     715.1119     545.8721
   1425.70679     716.2406     548.1760   1425.70679     716.2406     548.1760
   1425.69153     717.9278     549.5494   1425.69153     717.9278     549.5494
   1425.67627     720.7607     550.9202   1425.67627     720.7607     550.9202
   1425.66101     723.0922     551.7253   1425.66101     723.0922     551.7253
   1425.64575     723.4191     553.9273   1425.64575     723.4191     553.9273
   1425.63049     725.9738     554.2446   1425.63049     725.9738     554.2446
   1425.61523     727.0311     556.1713   1425.61523     727.0311     556.1713
   1425.59998     728.1691     556.9537   1425.59998     728.1691     556.9537
   1425.58472     730.6191     558.2985   1425.58472     730.6191     558.2985
   1425.56946     731.8970     559.8156   1425.56946     731.8970     559.8156
   1425.55420     733.3900     560.8009   1425.55420     733.3900     560.8009
   1425.53894     734.3687     561.7341   1425.53894     734.3687     561.7341
   1425.52368     736.3908     564.0355   1425.52368     736.3908     564.0355
   1425.50842     737.5128     564.8845   1425.50842     737.5128     564.8845
   1425.49316     738.4314     566.0070   1425.49316     738.4314     566.0070
   1425.47791     740.2502     567.1923   1425.47791     740.2502     567.1923
   1425.46265     742.0189     568.5091   1425.46265     742.0189     568.5091
   1425.44739     742.3365     569.5036   1425.44739     742.3365     569.5036
   1425.43213     743.5853     570.9065   1425.43213     743.5853     570.9065
   1425.41687     746.6168     572.9822   1425.41687     746.6168     572.9822
   1425.40161     747.1758     572.7673   1425.40161     747.1758     572.7673
   1425.38635     748.4761     574.1979   1425.38635     748.4761     574.1979
   1425.37109     748.5372     574.3307   1425.37109     748.5372     574.3307
   1425.35583     750.2634     575.8195   1425.35583     750.2634     575.8195
   1425.34058     751.4375     577.8990   1425.34058     751.4375     577.8990
   1425.32532     751.8181     578.3215   1425.32532     751.8181     578.3215
   1425.31006     752.9554     579.7598   1425.31006     752.9554     579.7598
   1425.29480     754.1132     580.5979   1425.29480     754.1132     580.5979
   1425.27954     755.8104     581.4778   1425.27954     755.8104     581.4778
   1425.26428     755.9918     583.5793   1425.26428     755.9918     583.5793
   1425.24902     756.8448     583.8289   1425.24902     756.8448     583.8289
   1425.23376     756.3528     583.7095   1425.23376     756.3528     583.7095
   1425.21851     759.0950     585.7719   1425.21851     759.0950     585.7719
   1425.20325     759.1700     587.3828   1425.20325     759.1700     587.3828
   1425.18799     759.2860     587.5837   1425.18799     759.2860     587.5837
   1425.17273     760.8594     588.6342   1425.17273     760.8594     588.6342
   1425.15747     761.6745     588.4031   1425.15747     761.6745     588.4031
   1425.14221     762.3621     590.3716   1425.14221     762.3621     590.3716
   1425.12695     762.7399     591.0226   1425.12695     762.7399     591.0226
   1425.11169     763.7764     592.7368   1425.11169     763.7764     592.7368
   1425.09644     764.5312     592.9828   1425.09644     764.5312     592.9828
   1425.08118     765.0230     594.3829   1425.08118     765.0230     594.3829
   1425.06592     764.2480     594.7668   1425.06592     764.2480     594.7668
   1425.05066     765.8656     595.5461   1425.05066     765.8656     595.5461
   1425.03540     767.5372     596.7238   1425.03540     767.5372     596.7238
   1425.02014     767.5355     597.0837   1425.02014     767.5355     597.0837
   1425.00488     766.7894     598.8640   1425.00488     766.7894     598.8640
   1424.98962     766.5814     598.7885   1424.98962     766.5814     598.7885
   1424.97437     767.3083     599.8906   1424.97437     767.3083     599.8906
   1424.95911     769.1213     600.3083   1424.95911     769.1213     600.3083
   1424.94385     769.6340     600.8458   1424.94385     769.6340     600.8458
   1424.92859     768.0063     601.8873   1424.92859     768.0063     601.8873
   1424.91333     769.4747     603.0114   1424.91333     769.4747     603.0114
   1424.89807     768.8933     603.1301   1424.89807     768.8933     603.1301
   1424.88281     771.3444     604.9028   1424.88281     771.3444     604.9028
   1424.86755     769.6270     605.4380   1424.86755     769.6270     605.4380
   1424.85229     770.2539     605.9662   1424.85229     770.2539     605.9662
   1424.83704     770.1686     605.8903   1424.83704     770.1686     605.8903
   1424.82178     770.9572     606.1818   1424.82178     770.9572     606.1818
   1424.80652     772.0991     607.7728   1424.80652     772.0991     607.7728
   1424.79126     771.0284     608.3699   1424.79126     771.0284     608.3699
   1424.77600     771.5031     608.3552   1424.77600     771.5031     608.3552
   1424.76074     771.5159     608.7902   1424.76074     771.5159     608.7902
   1424.74548     772.0370     610.5317   1424.74548     772.0370     610.5317
   1424.73022     772.2555     611.7121   1424.73022     772.2555     611.7121
   1424.71497     771.9139     612.0320   1424.71497     771.9139     612.0320
   1424.69971     772.6669     611.8640   1424.69971     772.6669     611.8640
   1424.68445     771.6423     612.0974   1424.68445     771.6423     612.0974
   1424.66919     771.7333     613.1995   1424.66919     771.7333     613.1995
   1424.65393     771.5864     613.6602   1424.65393     771.5864     613.6602
   1424.63867     771.3053     615.3618   1424.63867     771.3053     615.3618
   1424.62341     772.2097     615.8584   1424.62341     772.2097     615.8584
   1424.60815     772.8991     617.2910   1424.60815     772.8991     617.2910
   1424.59290     771.7850     616.2427   1424.59290     771.7850     616.2427
   1424.57764     772.6258     616.6614   1424.57764     772.6258     616.6614
   1424.56238     772.5189     618.1832   1424.56238     772.5189     618.1832
   1424.54712     770.7486     619.1957   1424.54712     770.7486     619.1957
   1424.53186     772.3353     619.4038   1424.53186     772.3353     619.4038
   1424.51660     771.1464     619.8760   1424.51660     771.1464     619.8760
   1424.50134     771.2274     619.4810   1424.50134     771.2274     619.4810
   1424.48608     771.3861     621.1302   1424.48608     771.3861     621.1302
   1424.47083     771.8072     622.2063   1424.47083     771.8072     622.2063
   1424.45557     771.9727     622.3856   1424.45557     771.9727     622.3856
   1424.44031     771.6858     623.0713   1424.44031     771.6858     623.0713
   1424.42505     770.8279     622.9221   1424.42505     770.8279     622.9221
   1424.40979     770.5195     623.5223   1424.40979     770.5195     623.5223
   1424.39453     771.4990     625.3497   1424.39453     771.4990     625.3497
   1424.37927     771.6339     624.9788   1424.37927     771.6339     624.9788
   1424.36401     769.7518     625.5823   1424.36401     769.7518     625.5823
   1424.34875     769.6714     625.4277   1424.34875     769.6714     625.4277
   1424.33350     770.0790     626.7138   1424.33350     770.0790     626.7138
   1424.31824     770.2358     626.4287   1424.31824     770.2358     626.4287
   1424.30298     769.4894     626.5933   1424.30298     769.4894     626.5933
   1424.28772     769.3516     627.6739   1424.28772     769.3516     627.6739
   1424.27246     769.4105     628.0364   1424.27246     769.4105     628.0364
   1424.25720     769.0608     628.7202   1424.25720     769.0608     628.7202
   1424.24194     768.9733     628.2953   1424.24194     768.9733     628.2953
   1424.22668     767.5970     631.1266   1424.22668     767.5970     631.1266
   1424.21143     768.7404     630.1392   1424.21143     768.7404     630.1392
   1424.19617     768.4022     630.5784   1424.19617     768.4022     630.5784
   1424.18091     768.5933     631.9737   1424.18091     768.5933     631.9737
   1424.16565     767.6869     630.6901   1424.16565     767.6869     630.6901
