#     FILENAME=!Skynet_57528_lach-hhg-108_20370_20915.cyb.fits
#     BASENAME=Skynet_57528_lach-hhg-108_20370_20915
#     SRC_NAME=lach-hhg-108
#     OBSERVER=hhgmadison16_9500
#     DATE_OBS=2016-05-20T15:39:25.870
#        OBSID=20370
#      SCANNUM=20915
#          MJD=57528.6534
#          UTC=56455
#     SCANTYPE=track
#     DATAMODE=HIRES
#     TUNEFREQ=1420.0000
# Actual_FREQ1=1420.0000
# Actual_FREQ2=1420.0000
#    LO1Tuning=6870.000
#     RFFILTER=1355_1435
#        OBSBW=-15.6250
#        NCHAN=1024 
#        FOCUS=37.0709
#           RA=22:50:18.18
#          DEC=59:18:34.94
#      RA(hrs)=22.838400
#     DEC(deg)=59.309700
#    AZIM(deg)=319.672
#    ELEV(deg)=51.694
#     IFattens=10.00, 10.00
#      WARNING=None
#    TCAL_XL1=7.9635
#    TCAL_YR1=9.1340
#    TCAL_XL2=7.9635
#    TCAL_YR2=9.1340
#     TRX_XL1=11.7060
#     TRX_YR1=11.7060
#     TRX_XL2=11.7060
#     TRX_YR2=11.7060
#        TAVE=1.0000
#Freq1(MHz)          XL1          YR1  Freq2(MHz)          XL2          YR2 

   1427.81250     295.6664     288.8744   1427.81250     295.6664     288.8744
   1427.79724     295.4391     290.2030   1427.79724     295.4391     290.2030
   1427.78198     296.4448     290.7420   1427.78198     296.4448     290.7420
   1427.76672     296.5670     291.3925   1427.76672     296.5670     291.3925
   1427.75146     297.3823     292.5862   1427.75146     297.3823     292.5862
   1427.73621     298.0835     293.6898   1427.73621     298.0835     293.6898
   1427.72095     298.6817     294.3883   1427.72095     298.6817     294.3883
   1427.70569     299.7454     295.5571   1427.70569     299.7454     295.5571
   1427.69043     300.5830     296.4273   1427.69043     300.5830     296.4273
   1427.67517     301.0636     297.8665   1427.67517     301.0636     297.8665
   1427.65991     301.9340     299.2756   1427.65991     301.9340     299.2756
   1427.64465     303.2689     299.8469   1427.64465     303.2689     299.8469
   1427.62939     304.3565     301.9010   1427.62939     304.3565     301.9010
   1427.61414     304.7426     302.9854   1427.61414     304.7426     302.9854
   1427.59888     305.9955     304.4045   1427.59888     305.9955     304.4045
   1427.58362     307.1501     305.1121   1427.58362     307.1501     305.1121
   1427.56836     307.7140     306.5086   1427.56836     307.7140     306.5086
   1427.55310     309.3537     308.2865   1427.55310     309.3537     308.2865
   1427.53784     310.3637     309.5929   1427.53784     310.3637     309.5929
   1427.52258     311.7652     311.4327   1427.52258     311.7652     311.4327
   1427.50732     313.3257     312.6423   1427.50732     313.3257     312.6423
   1427.49207     314.5428     314.4604   1427.49207     314.5428     314.4604
   1427.47681     315.9430     315.7123   1427.47681     315.9430     315.7123
   1427.46155     317.0976     318.0959   1427.46155     317.0976     318.0959
   1427.44629     318.3082     319.2646   1427.44629     318.3082     319.2646
   1427.43103     320.2103     321.4836   1427.43103     320.2103     321.4836
   1427.41577     321.5540     322.8319   1427.41577     321.5540     322.8319
   1427.40051     322.9226     324.2361   1427.40051     322.9226     324.2361
   1427.38525     325.2996     325.6034   1427.38525     325.2996     325.6034
   1427.37000     326.4156     328.0118   1427.37000     326.4156     328.0118
   1427.35474     327.9119     329.5024   1427.35474     327.9119     329.5024
   1427.33948     330.3572     332.1031   1427.33948     330.3572     332.1031
   1427.32422     331.5722     333.5088   1427.32422     331.5722     333.5088
   1427.30896     333.0261     335.3078   1427.30896     333.0261     335.3078
   1427.29370     335.5977     337.2871   1427.29370     335.5977     337.2871
   1427.27844     336.8037     339.8631   1427.27844     336.8037     339.8631
   1427.26318     339.2335     341.5116   1427.26318     339.2335     341.5116
   1427.24792     340.3406     343.1238   1427.24792     340.3406     343.1238
   1427.23267     342.4335     345.6846   1427.23267     342.4335     345.6846
   1427.21741     344.2711     347.2024   1427.21741     344.2711     347.2024
   1427.20215     346.5884     349.6953   1427.20215     346.5884     349.6953
   1427.18689     348.5219     351.3157   1427.18689     348.5219     351.3157
   1427.17163     350.2318     353.7055   1427.17163     350.2318     353.7055
   1427.15637     352.1478     355.3175   1427.15637     352.1478     355.3175
   1427.14111     354.5636     357.7454   1427.14111     354.5636     357.7454
   1427.12585     356.9785     359.8076   1427.12585     356.9785     359.8076
   1427.11060     358.0493     362.4328   1427.11060     358.0493     362.4328
   1427.09534     360.3369     364.8982   1427.09534     360.3369     364.8982
   1427.08008     363.1333     366.6263   1427.08008     363.1333     366.6263
   1427.06482     364.7266     369.0727   1427.06482     364.7266     369.0727
   1427.04956     367.0657     371.2101   1427.04956     367.0657     371.2101
   1427.03430     369.7751     373.4561   1427.03430     369.7751     373.4561
   1427.01904     372.0946     375.8674   1427.01904     372.0946     375.8674
   1427.00378     374.1158     377.6764   1427.00378     374.1158     377.6764
   1426.98853     375.8238     380.1248   1426.98853     375.8238     380.1248
   1426.97327     378.6269     383.1285   1426.97327     378.6269     383.1285
   1426.95801     380.6076     384.7559   1426.95801     380.6076     384.7559
   1426.94275     382.7449     387.1327   1426.94275     382.7449     387.1327
   1426.92749     385.4090     389.6911   1426.92749     385.4090     389.6911
   1426.91223     387.0142     391.2530   1426.91223     387.0142     391.2530
   1426.89697     390.4427     394.7005   1426.89697     390.4427     394.7005
   1426.88171     392.3314     396.2520   1426.88171     392.3314     396.2520
   1426.86646     394.1804     399.4039   1426.86646     394.1804     399.4039
   1426.85120     396.5730     400.8230   1426.85120     396.5730     400.8230
   1426.83594     399.9358     403.6653   1426.83594     399.9358     403.6653
   1426.82068     402.2230     405.4296   1426.82068     402.2230     405.4296
   1426.80542     403.9257     408.2665   1426.80542     403.9257     408.2665
   1426.79016     406.7368     410.5076   1426.79016     406.7368     410.5076
   1426.77490     408.8754     413.0997   1426.77490     408.8754     413.0997
   1426.75964     411.2687     414.8515   1426.75964     411.2687     414.8515
   1426.74438     413.7132     416.9321   1426.74438     413.7132     416.9321
   1426.72913     416.2670     419.1713   1426.72913     416.2670     419.1713
   1426.71387     418.8956     422.3058   1426.71387     418.8956     422.3058
   1426.69861     421.5255     424.1293   1426.69861     421.5255     424.1293
   1426.68335     424.0103     426.5452   1426.68335     424.0103     426.5452
   1426.66809     425.8502     428.5057   1426.66809     425.8502     428.5057
   1426.65283     428.3671     431.3653   1426.65283     428.3671     431.3653
   1426.63757     431.2018     433.3496   1426.63757     431.2018     433.3496
   1426.62231     436.5991     440.2051   1426.62231     436.5991     440.2051
   1426.60706     436.6542     438.4657   1426.60706     436.6542     438.4657
   1426.59180     438.0099     439.6459   1426.59180     438.0099     439.6459
   1426.57654     440.9398     442.0879   1426.57654     440.9398     442.0879
   1426.56128     443.2827     444.7416   1426.56128     443.2827     444.7416
   1426.54602     445.4354     447.6055   1426.54602     445.4354     447.6055
   1426.53076     447.3133     449.5441   1426.53076     447.3133     449.5441
   1426.51550     449.7509     451.0634   1426.51550     449.7509     451.0634
   1426.50024     453.4007     452.9308   1426.50024     453.4007     452.9308
   1426.48499     455.3919     456.1926   1426.48499     455.3919     456.1926
   1426.46973     457.7253     458.1714   1426.46973     457.7253     458.1714
   1426.45447     459.3728     460.4218   1426.45447     459.3728     460.4218
   1426.43921     462.8097     462.5000   1426.43921     462.8097     462.5000
   1426.42395     464.4949     464.9597   1426.42395     464.4949     464.9597
   1426.40869     466.6998     466.4758   1426.40869     466.6998     466.4758
   1426.39343     469.3581     467.8666   1426.39343     469.3581     467.8666
   1426.37817     471.2373     470.3402   1426.37817     471.2373     470.3402
   1426.36292     473.7027     472.8923   1426.36292     473.7027     472.8923
   1426.34766     476.3094     474.6255   1426.34766     476.3094     474.6255
   1426.33240     478.5888     477.0707   1426.33240     478.5888     477.0707
   1426.31714     480.6830     479.2236   1426.31714     480.6830     479.2236
   1426.30188     482.6866     481.1530   1426.30188     482.6866     481.1530
   1426.28662     484.9782     483.1124   1426.28662     484.9782     483.1124
   1426.27136     487.2389     485.3766   1426.27136     487.2389     485.3766
   1426.25610     489.8473     487.8816   1426.25610     489.8473     487.8816
   1426.24084     491.8819     489.6465   1426.24084     491.8819     489.6465
   1426.22559     493.9012     491.8218   1426.22559     493.9012     491.8218
   1426.21033     496.1252     493.7234   1426.21033     496.1252     493.7234
   1426.19507     498.4849     496.3548   1426.19507     498.4849     496.3548
   1426.17981     501.2400     497.4772   1426.17981     501.2400     497.4772
   1426.16455     503.1892     499.3065   1426.16455     503.1892     499.3065
   1426.14929     505.6205     500.4886   1426.14929     505.6205     500.4886
   1426.13403     506.9240     502.2695   1426.13403     506.9240     502.2695
   1426.11877     508.4255     504.1800   1426.11877     508.4255     504.1800
   1426.10352     511.3073     505.8542   1426.10352     511.3073     505.8542
   1426.08826     513.0554     509.3607   1426.08826     513.0554     509.3607
   1426.07300     514.7739     509.9673   1426.07300     514.7739     509.9673
   1426.05774     516.7092     512.4960   1426.05774     516.7092     512.4960
   1426.04248     518.8003     513.4968   1426.04248     518.8003     513.4968
   1426.02722     520.6400     515.3428   1426.02722     520.6400     515.3428
   1426.01196     523.2025     517.6707   1426.01196     523.2025     517.6707
   1425.99670     524.3821     519.2377   1425.99670     524.3821     519.2377
   1425.98145     526.8015     520.2949   1425.98145     526.8015     520.2949
   1425.96619     528.4878     521.9730   1425.96619     528.4878     521.9730
   1425.95093     529.9149     524.3796   1425.95093     529.9149     524.3796
   1425.93567     532.5067     525.8264   1425.93567     532.5067     525.8264
   1425.92041     532.9652     527.3552   1425.92041     532.9652     527.3552
   1425.90515     535.6407     529.3061   1425.90515     535.6407     529.3061
   1425.88989     537.9895     530.9405   1425.88989     537.9895     530.9405
   1425.87463     539.2314     532.7614   1425.87463     539.2314     532.7614
   1425.85938     539.7068     533.2491   1425.85938     539.7068     533.2491
   1425.84412     542.0100     536.0035   1425.84412     542.0100     536.0035
   1425.82886     543.5934     537.0997   1425.82886     543.5934     537.0997
   1425.81360     545.5699     538.2149   1425.81360     545.5699     538.2149
   1425.79834     546.5748     540.2824   1425.79834     546.5748     540.2824
   1425.78308     549.2949     541.4191   1425.78308     549.2949     541.4191
   1425.76782     549.6245     543.6447   1425.76782     549.6245     543.6447
   1425.75256     552.1681     543.9171   1425.75256     552.1681     543.9171
   1425.73730     553.1275     546.3057   1425.73730     553.1275     546.3057
   1425.72205     554.1403     547.1501   1425.72205     554.1403     547.1501
   1425.70679     555.7303     549.1459   1425.70679     555.7303     549.1459
   1425.69153     557.1243     551.0535   1425.69153     557.1243     551.0535
   1425.67627     558.7689     551.9908   1425.67627     558.7689     551.9908
   1425.66101     559.0532     553.3967   1425.66101     559.0532     553.3967
   1425.64575     561.6732     555.1120   1425.64575     561.6732     555.1120
   1425.63049     562.3857     556.2444   1425.63049     562.3857     556.2444
   1425.61523     563.8336     557.9672   1425.61523     563.8336     557.9672
   1425.59998     565.1481     559.1458   1425.59998     565.1481     559.1458
   1425.58472     566.6946     559.0848   1425.58472     566.6946     559.0848
   1425.56946     567.9098     560.8514   1425.56946     567.9098     560.8514
   1425.55420     567.7894     561.4998   1425.55420     567.7894     561.4998
   1425.53894     569.3711     563.8779   1425.53894     569.3711     563.8779
   1425.52368     570.2777     564.7087   1425.52368     570.2777     564.7087
   1425.50842     571.5317     566.7675   1425.50842     571.5317     566.7675
   1425.49316     572.5371     567.1410   1425.49316     572.5371     567.1410
   1425.47791     574.1928     568.7947   1425.47791     574.1928     568.7947
   1425.46265     575.4222     568.9247   1425.46265     575.4222     568.9247
   1425.44739     576.2592     571.2526   1425.44739     576.2592     571.2526
   1425.43213     576.9534     572.0753   1425.43213     576.9534     572.0753
   1425.41687     578.5684     573.7156   1425.41687     578.5684     573.7156
   1425.40161     577.8224     574.5609   1425.40161     577.8224     574.5609
   1425.38635     578.5506     574.7665   1425.38635     578.5506     574.7665
   1425.37109     579.8503     577.1665   1425.37109     579.8503     577.1665
   1425.35583     581.4771     577.1439   1425.35583     581.4771     577.1439
   1425.34058     582.9697     578.8464   1425.34058     582.9697     578.8464
   1425.32532     583.3943     579.0106   1425.32532     583.3943     579.0106
   1425.31006     584.3344     580.9922   1425.31006     584.3344     580.9922
   1425.29480     585.0722     580.7122   1425.29480     585.0722     580.7122
   1425.27954     584.8671     582.7690   1425.27954     584.8671     582.7690
   1425.26428     586.7761     583.5703   1425.26428     586.7761     583.5703
   1425.24902     587.6187     584.9111   1425.24902     587.6187     584.9111
   1425.23376     586.9937     585.2509   1425.23376     586.9937     585.2509
   1425.21851     587.3445     586.6797   1425.21851     587.3445     586.6797
   1425.20325     588.0189     587.3831   1425.20325     588.0189     587.3831
   1425.18799     588.3193     587.9612   1425.18799     588.3193     587.9612
   1425.17273     589.2861     589.2145   1425.17273     589.2861     589.2145
   1425.15747     590.9231     590.1202   1425.15747     590.9231     590.1202
   1425.14221     591.8068     591.0428   1425.14221     591.8068     591.0428
   1425.12695     591.0489     592.3804   1425.12695     591.0489     592.3804
   1425.11169     591.9004     592.8108   1425.11169     591.9004     592.8108
   1425.09644     592.6646     593.7186   1425.09644     592.6646     593.7186
   1425.08118     593.4741     594.5447   1425.08118     593.4741     594.5447
   1425.06592     592.8262     594.9426   1425.06592     592.8262     594.9426
   1425.05066     594.3332     596.1259   1425.05066     594.3332     596.1259
   1425.03540     593.8270     597.1828   1425.03540     593.8270     597.1828
   1425.02014     595.5988     597.6301   1425.02014     595.5988     597.6301
   1425.00488     595.4977     599.2233   1425.00488     595.4977     599.2233
   1424.98962     593.9406     599.7397   1424.98962     593.9406     599.7397
   1424.97437     595.8582     599.3779   1424.97437     595.8582     599.3779
   1424.95911     596.2170     600.4371   1424.95911     596.2170     600.4371
   1424.94385     595.5809     601.6565   1424.94385     595.5809     601.6565
   1424.92859     596.8339     602.1824   1424.92859     596.8339     602.1824
   1424.91333     597.1680     602.2411   1424.91333     597.1680     602.2411
   1424.89807     596.7236     603.5875   1424.89807     596.7236     603.5875
   1424.88281     597.6367     604.1698   1424.88281     597.6367     604.1698
   1424.86755     597.0380     604.7554   1424.86755     597.0380     604.7554
   1424.85229     597.5262     606.1552   1424.85229     597.5262     606.1552
   1424.83704     597.8065     607.9481   1424.83704     597.8065     607.9481
   1424.82178     598.1544     607.8570   1424.82178     598.1544     607.8570
   1424.80652     599.0581     608.6247   1424.80652     599.0581     608.6247
   1424.79126     597.6111     609.3075   1424.79126     597.6111     609.3075
   1424.77600     599.0882     609.4183   1424.77600     599.0882     609.4183
   1424.76074     598.7516     610.1519   1424.76074     598.7516     610.1519
   1424.74548     599.0151     610.8448   1424.74548     599.0151     610.8448
   1424.73022     599.1307     611.6765   1424.73022     599.1307     611.6765
   1424.71497     598.5626     612.5284   1424.71497     598.5626     612.5284
   1424.69971     599.5614     612.1713   1424.69971     599.5614     612.1713
   1424.68445     599.3112     613.2388   1424.68445     599.3112     613.2388
   1424.66919     600.0403     613.1707   1424.66919     600.0403     613.1707
   1424.65393     599.5218     613.7410   1424.65393     599.5218     613.7410
   1424.63867     599.2300     614.6365   1424.63867     599.2300     614.6365
   1424.62341     599.3101     615.3870   1424.62341     599.3101     615.3870
   1424.60815     599.2955     615.6140   1424.60815     599.2955     615.6140
   1424.59290     599.5764     616.9805   1424.59290     599.5764     616.9805
   1424.57764     598.9153     617.1719   1424.57764     598.9153     617.1719
   1424.56238     599.7780     617.5544   1424.56238     599.7780     617.5544
   1424.54712     597.8950     618.8292   1424.54712     597.8950     618.8292
   1424.53186     598.8634     618.2233   1424.53186     598.8634     618.2233
   1424.51660     599.1134     619.3654   1424.51660     599.1134     619.3654
   1424.50134     599.1374     620.0047   1424.50134     599.1374     620.0047
   1424.48608     598.6791     621.1372   1424.48608     598.6791     621.1372
   1424.47083     599.5550     620.1928   1424.47083     599.5550     620.1928
   1424.45557     599.3393     621.3553   1424.45557     599.3393     621.3553
   1424.44031     599.6546     621.8256   1424.44031     599.6546     621.8256
   1424.42505     598.9727     622.4683   1424.42505     598.9727     622.4683
   1424.40979     598.7262     622.5558   1424.40979     598.7262     622.5558
   1424.39453     598.0295     623.4239   1424.39453     598.0295     623.4239
   1424.37927     599.5800     623.4531   1424.37927     599.5800     623.4531
   1424.36401     598.6465     624.7010   1424.36401     598.6465     624.7010
   1424.34875     597.6823     624.7402   1424.34875     597.6823     624.7402
   1424.33350     598.4958     624.4903   1424.33350     598.4958     624.4903
   1424.31824     598.7276     625.4549   1424.31824     598.7276     625.4549
   1424.30298     598.2923     625.4958   1424.30298     598.2923     625.4958
   1424.28772     598.2261     626.0204   1424.28772     598.2261     626.0204
   1424.27246     598.2123     627.2159   1424.27246     598.2123     627.2159
   1424.25720     597.2256     627.5085   1424.25720     597.2256     627.5085
   1424.24194     597.2031     628.2698   1424.24194     597.2031     628.2698
   1424.22668     597.2231     627.0588   1424.22668     597.2231     627.0588
   1424.21143     596.3153     628.0750   1424.21143     596.3153     628.0750
   1424.19617     596.6232     629.1387   1424.19617     596.6232     629.1387
   1424.18091     596.7977     629.1724   1424.18091     596.7977     629.1724
   1424.16565     596.8632     629.6849   1424.16565     596.8632     629.6849
