#     FILENAME=!Skynet_57528_lach-cc-240_20656_21015.cyb.fits
#     BASENAME=Skynet_57528_lach-cc-240_20656_21015
#     SRC_NAME=lach-cc-240
#     OBSERVER=ccmadison16_9505
#     DATE_OBS=2016-05-20T19:05:52.750
#        OBSID=20656
#      SCANNUM=21015
#          MJD=57528.7968
#          UTC=68841
#     SCANTYPE=track
#     DATAMODE=HIRES
#     TUNEFREQ=1420.0000
# Actual_FREQ1=1420.0000
# Actual_FREQ2=1420.0000
#    LO1Tuning=6870.000
#     RFFILTER=1355_1435
#        OBSBW=-15.6250
#        NCHAN=1024 
#        FOCUS=37.0709
#           RA=07:43:57.37
#          DEC=-23:53:19.66
#      RA(hrs)=7.732600
#     DEC(deg)=-23.888800
#    AZIM(deg)=149.462
#    ELEV(deg)=21.177
#     IFattens=11.00, 9.00
#      WARNING=None
#    TCAL_XL1=7.9635
#    TCAL_YR1=9.1340
#    TCAL_XL2=7.9635
#    TCAL_YR2=9.1340
#     TRX_XL1=11.7060
#     TRX_YR1=11.7060
#     TRX_XL2=11.7060
#     TRX_YR2=11.7060
#        TAVE=1.0000
#Freq1(MHz)          XL1          YR1  Freq2(MHz)          XL2          YR2 

   1427.81250     384.0800     242.8242   1427.81250     384.0800     242.8242
   1427.79724     384.9048     243.6125   1427.79724     384.9048     243.6125
   1427.78198     385.2226     243.6512   1427.78198     385.2226     243.6512
   1427.76672     386.0380     244.1680   1427.76672     386.0380     244.1680
   1427.75146     387.1322     244.6006   1427.75146     387.1322     244.6006
   1427.73621     388.1698     245.0036   1427.73621     388.1698     245.0036
   1427.72095     389.2689     245.7748   1427.72095     389.2689     245.7748
   1427.70569     390.0175     246.5946   1427.70569     390.0175     246.5946
   1427.69043     390.7611     247.3997   1427.69043     390.7611     247.3997
   1427.67517     391.8491     247.7989   1427.67517     391.8491     247.7989
   1427.65991     393.1658     248.9837   1427.65991     393.1658     248.9837
   1427.64465     394.5950     249.8101   1427.64465     394.5950     249.8101
   1427.62939     395.9192     250.9276   1427.62939     395.9192     250.9276
   1427.61414     397.7328     251.5193   1427.61414     397.7328     251.5193
   1427.59888     398.5179     252.5579   1427.59888     398.5179     252.5579
   1427.58362     399.1170     253.6725   1427.58362     399.1170     253.6725
   1427.56836     401.6281     254.4580   1427.56836     401.6281     254.4580
   1427.55310     403.1999     255.1666   1427.55310     403.1999     255.1666
   1427.53784     404.3324     256.5911   1427.53784     404.3324     256.5911
   1427.52258     406.0804     257.6285   1427.52258     406.0804     257.6285
   1427.50732     408.2516     258.2336   1427.50732     408.2516     258.2336
   1427.49207     410.2085     259.7853   1427.49207     410.2085     259.7853
   1427.47681     411.6397     261.1775   1427.47681     411.6397     261.1775
   1427.46155     413.4441     262.4276   1427.46155     413.4441     262.4276
   1427.44629     415.9664     263.2815   1427.44629     415.9664     263.2815
   1427.43103     417.8499     264.9933   1427.43103     417.8499     264.9933
   1427.41577     418.9937     266.2004   1427.41577     418.9937     266.2004
   1427.40051     421.6299     267.6307   1427.40051     421.6299     267.6307
   1427.38525     423.3576     268.9677   1427.38525     423.3576     268.9677
   1427.37000     425.1579     270.1827   1427.37000     425.1579     270.1827
   1427.35474     427.4187     271.8654   1427.35474     427.4187     271.8654
   1427.33948     429.6879     273.3596   1427.33948     429.6879     273.3596
   1427.32422     432.1175     274.7176   1427.32422     432.1175     274.7176
   1427.30896     434.6967     276.0801   1427.30896     434.6967     276.0801
   1427.29370     436.7841     277.6509   1427.29370     436.7841     277.6509
   1427.27844     438.9286     279.4749   1427.27844     438.9286     279.4749
   1427.26318     440.4572     280.9339   1427.26318     440.4572     280.9339
   1427.24792     443.8423     282.7053   1427.24792     443.8423     282.7053
   1427.23267     446.2038     284.0443   1427.23267     446.2038     284.0443
   1427.21741     448.1927     286.2104   1427.21741     448.1927     286.2104
   1427.20215     450.4692     287.7058   1427.20215     450.4692     287.7058
   1427.18689     453.6927     289.3974   1427.18689     453.6927     289.3974
   1427.17163     456.1023     291.2663   1427.17163     456.1023     291.2663
   1427.15637     458.3417     292.5891   1427.15637     458.3417     292.5891
   1427.14111     461.7972     294.5173   1427.14111     461.7972     294.5173
   1427.12585     464.0017     296.1103   1427.12585     464.0017     296.1103
   1427.11060     467.2058     298.2338   1427.11060     467.2058     298.2338
   1427.09534     468.8884     299.6653   1427.09534     468.8884     299.6653
   1427.08008     472.5862     301.2906   1427.08008     472.5862     301.2906
   1427.06482     474.9307     303.4590   1427.06482     474.9307     303.4590
   1427.04956     477.4026     305.9983   1427.04956     477.4026     305.9983
   1427.03430     480.7592     307.5403   1427.03430     480.7592     307.5403
   1427.01904     483.2054     309.5060   1427.01904     483.2054     309.5060
   1427.00378     486.0967     311.5074   1427.00378     486.0967     311.5074
   1426.98853     489.5459     313.3979   1426.98853     489.5459     313.3979
   1426.97327     492.4839     315.5988   1426.97327     492.4839     315.5988
   1426.95801     495.2191     316.8097   1426.95801     495.2191     316.8097
   1426.94275     497.4042     319.1219   1426.94275     497.4042     319.1219
   1426.92749     501.6555     321.3147   1426.92749     501.6555     321.3147
   1426.91223     504.0566     323.4998   1426.91223     504.0566     323.4998
   1426.89697     506.8264     325.3414   1426.89697     506.8264     325.3414
   1426.88171     510.8015     327.4315   1426.88171     510.8015     327.4315
   1426.86646     513.0292     328.9262   1426.86646     513.0292     328.9262
   1426.85120     516.1042     330.8855   1426.85120     516.1042     330.8855
   1426.83594     519.2223     333.4498   1426.83594     519.2223     333.4498
   1426.82068     522.2510     335.2720   1426.82068     522.2510     335.2720
   1426.80542     525.7057     337.9776   1426.80542     525.7057     337.9776
   1426.79016     527.9591     339.5992   1426.79016     527.9591     339.5992
   1426.77490     532.0903     341.7019   1426.77490     532.0903     341.7019
   1426.75964     534.8505     343.3151   1426.75964     534.8505     343.3151
   1426.74438     537.2227     345.6591   1426.74438     537.2227     345.6591
   1426.72913     541.2391     347.6201   1426.72913     541.2391     347.6201
   1426.71387     543.6219     349.6576   1426.71387     543.6219     349.6576
   1426.69861     546.6584     352.2921   1426.69861     546.6584     352.2921
   1426.68335     549.9152     353.9479   1426.68335     549.9152     353.9479
   1426.66809     553.3578     355.4496   1426.66809     553.3578     355.4496
   1426.65283     555.3748     358.0649   1426.65283     555.3748     358.0649
   1426.63757     558.8360     360.5726   1426.63757     558.8360     360.5726
   1426.62231     563.5927     363.0313   1426.62231     563.5927     363.0313
   1426.60706     565.8524     364.6818   1426.60706     565.8524     364.6818
   1426.59180     568.3722     366.7385   1426.59180     568.3722     366.7385
   1426.57654     571.5758     368.2419   1426.57654     571.5758     368.2419
   1426.56128     574.8437     370.7493   1426.56128     574.8437     370.7493
   1426.54602     576.7263     373.1632   1426.54602     576.7263     373.1632
   1426.53076     581.3734     374.3961   1426.53076     581.3734     374.3961
   1426.51550     584.3761     377.0828   1426.51550     584.3761     377.0828
   1426.50024     586.7324     379.0598   1426.50024     586.7324     379.0598
   1426.48499     589.9551     381.1359   1426.48499     589.9551     381.1359
   1426.46973     592.5951     383.1444   1426.46973     592.5951     383.1444
   1426.45447     595.9811     385.0037   1426.45447     595.9811     385.0037
   1426.43921     599.2134     387.0361   1426.43921     599.2134     387.0361
   1426.42395     602.9299     389.4605   1426.42395     602.9299     389.4605
   1426.40869     605.4004     391.1167   1426.40869     605.4004     391.1167
   1426.39343     607.7097     393.0141   1426.39343     607.7097     393.0141
   1426.37817     611.3932     395.0899   1426.37817     611.3932     395.0899
   1426.36292     613.5215     398.0474   1426.36292     613.5215     398.0474
   1426.34766     616.4987     399.3703   1426.34766     616.4987     399.3703
   1426.33240     619.6420     401.0701   1426.33240     619.6420     401.0701
   1426.31714     623.2803     403.5246   1426.31714     623.2803     403.5246
   1426.30188     626.0393     404.8085   1426.30188     626.0393     404.8085
   1426.28662     628.3303     407.0668   1426.28662     628.3303     407.0668
   1426.27136     631.0873     409.4550   1426.27136     631.0873     409.4550
   1426.25610     634.2080     411.5670   1426.25610     634.2080     411.5670
   1426.24084     636.1934     412.9746   1426.24084     636.1934     412.9746
   1426.22559     639.8112     416.0812   1426.22559     639.8112     416.0812
   1426.21033     641.9062     416.9696   1426.21033     641.9062     416.9696
   1426.19507     644.7548     418.8973   1426.19507     644.7548     418.8973
   1426.17981     648.6762     420.4106   1426.17981     648.6762     420.4106
   1426.16455     650.1100     422.5306   1426.16455     650.1100     422.5306
   1426.14929     653.2997     424.6309   1426.14929     653.2997     424.6309
   1426.13403     656.1577     427.0786   1426.13403     656.1577     427.0786
   1426.11877     658.2150     428.5082   1426.11877     658.2150     428.5082
   1426.10352     661.9949     430.1824   1426.10352     661.9949     430.1824
   1426.08826     663.8868     431.7352   1426.08826     663.8868     431.7352
   1426.07300     666.0391     434.7042   1426.07300     666.0391     434.7042
   1426.05774     668.0745     435.2497   1426.05774     668.0745     435.2497
   1426.04248     671.7187     437.6870   1426.04248     671.7187     437.6870
   1426.02722     674.0078     438.9544   1426.02722     674.0078     438.9544
   1426.01196     675.1990     440.7757   1426.01196     675.1990     440.7757
   1425.99670     678.6618     442.2384   1425.99670     678.6618     442.2384
   1425.98145     680.6879     444.4062   1425.98145     680.6879     444.4062
   1425.96619     683.9336     446.4693   1425.96619     683.9336     446.4693
   1425.95093     684.6334     448.0205   1425.95093     684.6334     448.0205
   1425.93567     687.7188     449.6230   1425.93567     687.7188     449.6230
   1425.92041     689.8345     451.4992   1425.92041     689.8345     451.4992
   1425.90515     692.8934     452.7607   1425.90515     692.8934     452.7607
   1425.88989     694.0033     453.8954   1425.88989     694.0033     453.8954
   1425.87463     696.3485     455.9216   1425.87463     696.3485     455.9216
   1425.85938     699.8516     457.9985   1425.85938     699.8516     457.9985
   1425.84412     700.4764     459.6091   1425.84412     700.4764     459.6091
   1425.82886     702.9134     460.7560   1425.82886     702.9134     460.7560
   1425.81360     704.8141     463.5871   1425.81360     704.8141     463.5871
   1425.79834     707.9224     465.3120   1425.79834     707.9224     465.3120
   1425.78308     708.7527     465.8386   1425.78308     708.7527     465.8386
   1425.76782     711.2423     467.1747   1425.76782     711.2423     467.1747
   1425.75256     712.5247     468.9023   1425.75256     712.5247     468.9023
   1425.73730     715.0914     470.4359   1425.73730     715.0914     470.4359
   1425.72205     715.7875     471.6003   1425.72205     715.7875     471.6003
   1425.70679     718.7924     473.6728   1425.70679     718.7924     473.6728
   1425.69153     720.4612     475.2011   1425.69153     720.4612     475.2011
   1425.67627     722.7713     476.4782   1425.67627     722.7713     476.4782
   1425.66101     723.7561     477.4158   1425.66101     723.7561     477.4158
   1425.64575     725.3080     478.9680   1425.64575     725.3080     478.9680
   1425.63049     727.0120     481.0031   1425.63049     727.0120     481.0031
   1425.61523     728.7983     482.0993   1425.61523     728.7983     482.0993
   1425.59998     730.4244     483.1889   1425.59998     730.4244     483.1889
   1425.58472     732.0987     484.8552   1425.58472     732.0987     484.8552
   1425.56946     733.7043     485.5161   1425.56946     733.7043     485.5161
   1425.55420     734.8493     487.7522   1425.55420     734.8493     487.7522
   1425.53894     736.9199     488.8176   1425.53894     736.9199     488.8176
   1425.52368     738.1303     489.2796   1425.52368     738.1303     489.2796
   1425.50842     738.8650     491.1755   1425.50842     738.8650     491.1755
   1425.49316     740.4083     492.1458   1425.49316     740.4083     492.1458
   1425.47791     742.2532     493.5799   1425.47791     742.2532     493.5799
   1425.46265     744.2893     494.6569   1425.46265     744.2893     494.6569
   1425.44739     746.0366     496.1477   1425.44739     746.0366     496.1477
   1425.43213     745.3730     497.2950   1425.43213     745.3730     497.2950
   1425.41687     748.3840     498.7403   1425.41687     748.3840     498.7403
   1425.40161     748.5629     501.1360   1425.40161     748.5629     501.1360
   1425.38635     751.2216     502.4837   1425.38635     751.2216     502.4837
   1425.37109     750.9436     502.5733   1425.37109     750.9436     502.5733
   1425.35583     753.2940     504.1651   1425.35583     753.2940     504.1651
   1425.34058     754.4716     504.3723   1425.34058     754.4716     504.3723
   1425.32532     755.0206     505.3210   1425.32532     755.0206     505.3210
   1425.31006     757.2148     507.2220   1425.31006     757.2148     507.2220
   1425.29480     755.7759     508.4755   1425.29480     755.7759     508.4755
   1425.27954     758.0078     508.8952   1425.27954     758.0078     508.8952
   1425.26428     759.3731     510.2416   1425.26428     759.3731     510.2416
   1425.24902     760.3995     511.0237   1425.24902     760.3995     511.0237
   1425.23376     760.2316     513.1992   1425.23376     760.2316     513.1992
   1425.21851     761.9050     514.2716   1425.21851     761.9050     514.2716
   1425.20325     763.0537     515.4012   1425.20325     763.0537     515.4012
   1425.18799     761.9276     517.1436   1425.18799     761.9276     517.1436
   1425.17273     764.6141     516.6529   1425.17273     764.6141     516.6529
   1425.15747     765.4266     518.5176   1425.15747     765.4266     518.5176
   1425.14221     766.7634     519.2902   1425.14221     766.7634     519.2902
   1425.12695     769.6075     520.6548   1425.12695     769.6075     520.6548
   1425.11169     767.2373     521.1378   1425.11169     767.2373     521.1378
   1425.09644     767.1468     521.6700   1425.09644     767.1468     521.6700
   1425.08118     769.3994     523.5931   1425.08118     769.3994     523.5931
   1425.06592     768.5629     524.4876   1425.06592     768.5629     524.4876
   1425.05066     770.5425     525.2647   1425.05066     770.5425     525.2647
   1425.03540     770.7700     526.4860   1425.03540     770.7700     526.4860
   1425.02014     772.8093     527.0073   1425.02014     772.8093     527.0073
   1425.00488     772.1088     528.1108   1425.00488     772.1088     528.1108
   1424.98962     773.3915     529.5050   1424.98962     773.3915     529.5050
   1424.97437     772.8403     529.4736   1424.97437     772.8403     529.4736
   1424.95911     772.3680     530.7703   1424.95911     772.3680     530.7703
   1424.94385     773.6449     531.1262   1424.94385     773.6449     531.1262
   1424.92859     774.3223     531.7166   1424.92859     774.3223     531.7166
   1424.91333     773.7305     532.4050   1424.91333     773.7305     532.4050
   1424.89807     775.6022     533.9694   1424.89807     775.6022     533.9694
   1424.88281     775.8044     534.8525   1424.88281     775.8044     534.8525
   1424.86755     776.5461     535.3731   1424.86755     776.5461     535.3731
   1424.85229     776.2262     536.2460   1424.85229     776.2262     536.2460
   1424.83704     776.0821     536.4633   1424.83704     776.0821     536.4633
   1424.82178     776.5687     537.0782   1424.82178     776.5687     537.0782
   1424.80652     777.4639     538.4012   1424.80652     777.4639     538.4012
   1424.79126     777.7932     538.8212   1424.79126     777.7932     538.8212
   1424.77600     778.3865     539.9609   1424.77600     778.3865     539.9609
   1424.76074     777.5327     541.3750   1424.76074     777.5327     541.3750
   1424.74548     778.0783     541.5670   1424.74548     778.0783     541.5670
   1424.73022     779.5771     543.1877   1424.73022     779.5771     543.1877
   1424.71497     778.7166     543.0161   1424.71497     778.7166     543.0161
   1424.69971     778.7599     543.1227   1424.69971     778.7599     543.1227
   1424.68445     778.5222     544.2345   1424.68445     778.5222     544.2345
   1424.66919     778.5004     544.5966   1424.66919     778.5004     544.5966
   1424.65393     778.4346     545.5040   1424.65393     778.4346     545.5040
   1424.63867     780.5582     546.3249   1424.63867     780.5582     546.3249
   1424.62341     779.9984     546.1675   1424.62341     779.9984     546.1675
   1424.60815     781.0917     547.0336   1424.60815     781.0917     547.0336
   1424.59290     779.5578     548.3660   1424.59290     779.5578     548.3660
   1424.57764     780.4939     549.2690   1424.57764     780.4939     549.2690
   1424.56238     780.1297     549.5372   1424.56238     780.1297     549.5372
   1424.54712     780.4293     549.7702   1424.54712     780.4293     549.7702
   1424.53186     780.6880     551.1504   1424.53186     780.6880     551.1504
   1424.51660     780.2718     551.7404   1424.51660     780.2718     551.7404
   1424.50134     780.6937     552.4281   1424.50134     780.6937     552.4281
   1424.48608     779.9186     553.3766   1424.48608     779.9186     553.3766
   1424.47083     780.7035     553.2485   1424.47083     780.7035     553.2485
   1424.45557     780.0132     555.3871   1424.45557     780.0132     555.3871
   1424.44031     781.3682     554.6652   1424.44031     781.3682     554.6652
   1424.42505     780.8898     556.0084   1424.42505     780.8898     556.0084
   1424.40979     780.8621     556.0773   1424.40979     780.8621     556.0773
   1424.39453     781.2388     556.2857   1424.39453     781.2388     556.2857
   1424.37927     780.4630     557.6780   1424.37927     780.4630     557.6780
   1424.36401     780.7628     558.9873   1424.36401     780.7628     558.9873
   1424.34875     780.9395     557.4512   1424.34875     780.9395     557.4512
   1424.33350     780.2849     558.8004   1424.33350     780.2849     558.8004
   1424.31824     780.1523     558.2665   1424.31824     780.1523     558.2665
   1424.30298     780.0788     559.4341   1424.30298     780.0788     559.4341
   1424.28772     780.1052     560.2661   1424.28772     780.1052     560.2661
   1424.27246     780.1824     559.2958   1424.27246     780.1824     559.2958
   1424.25720     779.3982     561.4235   1424.25720     779.3982     561.4235
   1424.24194     779.8365     561.4714   1424.24194     779.8365     561.4714
   1424.22668     779.9161     562.1907   1424.22668     779.9161     562.1907
   1424.21143     778.5905     563.5784   1424.21143     778.5905     563.5784
   1424.19617     780.8238     563.2065   1424.19617     780.8238     563.2065
   1424.18091     779.0078     563.0594   1424.18091     779.0078     563.0594
   1424.16565     778.8859     563.8895   1424.16565     778.8859     563.8895
