#     FILENAME=!Skynet_57528_lach-cc-245_20661_21037.cyb.fits
#     BASENAME=Skynet_57528_lach-cc-245_20661_21037
#     SRC_NAME=lach-cc-245
#     OBSERVER=ccmadison16_9505
#     DATE_OBS=2016-05-20T19:50:32.120
#        OBSID=20661
#      SCANNUM=21037
#          MJD=57528.8278
#          UTC=71520
#     SCANTYPE=track
#     DATAMODE=HIRES
#     TUNEFREQ=1420.0000
# Actual_FREQ1=1420.0000
# Actual_FREQ2=1420.0000
#    LO1Tuning=6870.000
#     RFFILTER=1355_1435
#        OBSBW=-15.6250
#        NCHAN=1024 
#        FOCUS=37.0709
#           RA=07:55:17.12
#          DEC=-28:11:52.12
#      RA(hrs)=7.921400
#     DEC(deg)=-28.197800
#    AZIM(deg)=158.637
#    ELEV(deg)=19.989
#     IFattens=11.00, 10.00
#      WARNING=None
#    TCAL_XL1=7.9635
#    TCAL_YR1=9.1340
#    TCAL_XL2=7.9635
#    TCAL_YR2=9.1340
#     TRX_XL1=11.7060
#     TRX_YR1=11.7060
#     TRX_XL2=11.7060
#     TRX_YR2=11.7060
#        TAVE=1.0000
#Freq1(MHz)          XL1          YR1  Freq2(MHz)          XL2          YR2 

   1427.81250     298.8649     241.1237   1427.81250     298.8649     241.1237
   1427.79724     299.1294     241.1146   1427.79724     299.1294     241.1146
   1427.78198     300.0768     241.3046   1427.78198     300.0768     241.3046
   1427.76672     300.8223     242.1505   1427.76672     300.8223     242.1505
   1427.75146     301.2527     242.5946   1427.75146     301.2527     242.5946
   1427.73621     302.0591     242.7364   1427.73621     302.0591     242.7364
   1427.72095     303.2007     243.4031   1427.72095     303.2007     243.4031
   1427.70569     303.4362     243.9026   1427.70569     303.4362     243.9026
   1427.69043     304.5999     244.7082   1427.69043     304.5999     244.7082
   1427.67517     305.3437     245.5920   1427.67517     305.3437     245.5920
   1427.65991     306.2475     245.8357   1427.65991     306.2475     245.8357
   1427.64465     307.4449     246.8989   1427.64465     307.4449     246.8989
   1427.62939     308.5104     247.3339   1427.62939     308.5104     247.3339
   1427.61414     309.7127     247.4069   1427.61414     309.7127     247.4069
   1427.59888     310.5973     248.9684   1427.59888     310.5973     248.9684
   1427.58362     312.0711     249.8887   1427.58362     312.0711     249.8887
   1427.56836     312.3020     250.5293   1427.56836     312.3020     250.5293
   1427.55310     314.0787     251.3438   1427.55310     314.0787     251.3438
   1427.53784     315.4049     252.5190   1427.53784     315.4049     252.5190
   1427.52258     316.5107     253.4122   1427.52258     316.5107     253.4122
   1427.50732     316.9409     254.3488   1427.50732     316.9409     254.3488
   1427.49207     319.1599     255.7296   1427.49207     319.1599     255.7296
   1427.47681     320.4532     256.4280   1427.47681     320.4532     256.4280
   1427.46155     321.9224     257.6201   1427.46155     321.9224     257.6201
   1427.44629     323.0670     258.8385   1427.44629     323.0670     258.8385
   1427.43103     324.9911     260.1195   1427.43103     324.9911     260.1195
   1427.41577     326.5932     261.5276   1427.41577     326.5932     261.5276
   1427.40051     328.4849     262.4162   1427.40051     328.4849     262.4162
   1427.38525     329.0403     263.5085   1427.38525     329.0403     263.5085
   1427.37000     331.4312     265.0553   1427.37000     331.4312     265.0553
   1427.35474     333.0496     266.3567   1427.35474     333.0496     266.3567
   1427.33948     334.4339     267.7999   1427.33948     334.4339     267.7999
   1427.32422     336.8098     269.3655   1427.32422     336.8098     269.3655
   1427.30896     338.1851     270.1829   1427.30896     338.1851     270.1829
   1427.29370     339.9919     271.6020   1427.29370     339.9919     271.6020
   1427.27844     341.8146     273.5277   1427.27844     341.8146     273.5277
   1427.26318     343.1551     275.1826   1427.26318     343.1551     275.1826
   1427.24792     345.6918     276.1261   1427.24792     345.6918     276.1261
   1427.23267     347.1649     277.2646   1427.23267     347.1649     277.2646
   1427.21741     349.7409     279.6006   1427.21741     349.7409     279.6006
   1427.20215     351.1181     281.2317   1427.20215     351.1181     281.2317
   1427.18689     352.9953     282.5975   1427.18689     352.9953     282.5975
   1427.17163     355.1644     283.9751   1427.17163     355.1644     283.9751
   1427.15637     357.0836     286.1912   1427.15637     357.0836     286.1912
   1427.14111     358.9800     287.7883   1427.14111     358.9800     287.7883
   1427.12585     361.0269     289.7842   1427.12585     361.0269     289.7842
   1427.11060     363.6030     291.4479   1427.11060     363.6030     291.4479
   1427.09534     365.7313     293.1141   1427.09534     365.7313     293.1141
   1427.08008     367.9938     294.6395   1427.08008     367.9938     294.6395
   1427.06482     370.5752     296.5438   1427.06482     370.5752     296.5438
   1427.04956     371.6581     298.4949   1427.04956     371.6581     298.4949
   1427.03430     374.4572     299.8783   1427.03430     374.4572     299.8783
   1427.01904     376.6454     302.3289   1427.01904     376.6454     302.3289
   1427.00378     378.7246     303.9436   1427.00378     378.7246     303.9436
   1426.98853     380.8864     305.8460   1426.98853     380.8864     305.8460
   1426.97327     383.1604     307.5630   1426.97327     383.1604     307.5630
   1426.95801     385.3033     309.9262   1426.95801     385.3033     309.9262
   1426.94275     388.0446     311.5654   1426.94275     388.0446     311.5654
   1426.92749     389.7213     313.3950   1426.92749     389.7213     313.3950
   1426.91223     392.6197     315.8289   1426.91223     392.6197     315.8289
   1426.89697     395.1788     317.6199   1426.89697     395.1788     317.6199
   1426.88171     397.3972     319.6444   1426.88171     397.3972     319.6444
   1426.86646     399.7072     321.9110   1426.86646     399.7072     321.9110
   1426.85120     401.7381     324.0076   1426.85120     401.7381     324.0076
   1426.83594     404.2826     325.4846   1426.83594     404.2826     325.4846
   1426.82068     406.9380     327.7585   1426.82068     406.9380     327.7585
   1426.80542     408.8957     330.0394   1426.80542     408.8957     330.0394
   1426.79016     411.8892     332.2273   1426.79016     411.8892     332.2273
   1426.77490     413.6454     333.9308   1426.77490     413.6454     333.9308
   1426.75964     416.0609     336.2755   1426.75964     416.0609     336.2755
   1426.74438     418.1587     338.1144   1426.74438     418.1587     338.1144
   1426.72913     421.0459     340.5593   1426.72913     421.0459     340.5593
   1426.71387     423.0995     342.8753   1426.71387     423.0995     342.8753
   1426.69861     425.1757     344.5443   1426.69861     425.1757     344.5443
   1426.68335     428.0760     347.2760   1426.68335     428.0760     347.2760
   1426.66809     430.6444     348.8958   1426.66809     430.6444     348.8958
   1426.65283     433.6961     351.0413   1426.65283     433.6961     351.0413
   1426.63757     435.8761     353.4422   1426.63757     435.8761     353.4422
   1426.62231     440.1842     360.6371   1426.62231     440.1842     360.6371
   1426.60706     440.7071     357.8044   1426.60706     440.7071     357.8044
   1426.59180     443.0473     359.9178   1426.59180     443.0473     359.9178
   1426.57654     444.8616     361.5552   1426.57654     444.8616     361.5552
   1426.56128     447.6408     364.5582   1426.56128     447.6408     364.5582
   1426.54602     449.7140     366.4886   1426.54602     449.7140     366.4886
   1426.53076     452.0397     368.2611   1426.53076     452.0397     368.2611
   1426.51550     454.9958     370.1901   1426.51550     454.9958     370.1901
   1426.50024     456.9697     373.5106   1426.50024     456.9697     373.5106
   1426.48499     459.1441     374.4789   1426.48499     459.1441     374.4789
   1426.46973     462.0093     376.8163   1426.46973     462.0093     376.8163
   1426.45447     463.3043     379.8949   1426.45447     463.3043     379.8949
   1426.43921     466.0759     381.2626   1426.43921     466.0759     381.2626
   1426.42395     468.5664     384.1863   1426.42395     468.5664     384.1863
   1426.40869     470.9836     385.4085   1426.40869     470.9836     385.4085
   1426.39343     473.4907     388.1694   1426.39343     473.4907     388.1694
   1426.37817     475.5372     389.9738   1426.37817     475.5372     389.9738
   1426.36292     477.4300     391.8284   1426.36292     477.4300     391.8284
   1426.34766     479.9486     394.2726   1426.34766     479.9486     394.2726
   1426.33240     482.0281     396.3341   1426.33240     482.0281     396.3341
   1426.31714     484.2860     398.3599   1426.31714     484.2860     398.3599
   1426.30188     486.4133     400.7969   1426.30188     486.4133     400.7969
   1426.28662     489.0661     402.4420   1426.28662     489.0661     402.4420
   1426.27136     491.4777     404.4146   1426.27136     491.4777     404.4146
   1426.25610     494.1148     406.4300   1426.25610     494.1148     406.4300
   1426.24084     495.5044     409.5156   1426.24084     495.5044     409.5156
   1426.22559     497.5033     411.4854   1426.22559     497.5033     411.4854
   1426.21033     500.3158     412.9997   1426.21033     500.3158     412.9997
   1426.19507     502.2143     415.3009   1426.19507     502.2143     415.3009
   1426.17981     504.4676     417.6509   1426.17981     504.4676     417.6509
   1426.16455     505.7907     419.1606   1426.16455     505.7907     419.1606
   1426.14929     509.1642     421.3459   1426.14929     509.1642     421.3459
   1426.13403     510.5750     424.2029   1426.13403     510.5750     424.2029
   1426.11877     512.6492     426.0957   1426.11877     512.6492     426.0957
   1426.10352     515.4149     426.8206   1426.10352     515.4149     426.8206
   1426.08826     516.1607     430.1092   1426.08826     516.1607     430.1092
   1426.07300     518.5008     431.8644   1426.07300     518.5008     431.8644
   1426.05774     519.6324     433.8976   1426.05774     519.6324     433.8976
   1426.04248     522.4443     435.2401   1426.04248     522.4443     435.2401
   1426.02722     523.4981     438.1817   1426.02722     523.4981     438.1817
   1426.01196     526.0241     439.5557   1426.01196     526.0241     439.5557
   1425.99670     527.7936     441.6818   1425.99670     527.7936     441.6818
   1425.98145     530.1649     443.6118   1425.98145     530.1649     443.6118
   1425.96619     531.4473     445.2080   1425.96619     531.4473     445.2080
   1425.95093     533.2900     447.6783   1425.95093     533.2900     447.6783
   1425.93567     535.1884     449.5942   1425.93567     535.1884     449.5942
   1425.92041     536.7534     450.5656   1425.92041     536.7534     450.5656
   1425.90515     538.6802     454.2780   1425.90515     538.6802     454.2780
   1425.88989     540.0147     454.4652   1425.88989     540.0147     454.4652
   1425.87463     541.9564     456.8081   1425.87463     541.9564     456.8081
   1425.85938     543.3786     459.4375   1425.85938     543.3786     459.4375
   1425.84412     545.8216     460.1974   1425.84412     545.8216     460.1974
   1425.82886     546.2730     461.9071   1425.82886     546.2730     461.9071
   1425.81360     547.6246     463.7585   1425.81360     547.6246     463.7585
   1425.79834     551.0370     465.6143   1425.79834     551.0370     465.6143
   1425.78308     552.3284     467.7159   1425.78308     552.3284     467.7159
   1425.76782     553.8278     469.4610   1425.76782     553.8278     469.4610
   1425.75256     555.5109     471.1651   1425.75256     555.5109     471.1651
   1425.73730     556.2785     472.6436   1425.73730     556.2785     472.6436
   1425.72205     556.8772     474.4349   1425.72205     556.8772     474.4349
   1425.70679     559.6257     475.9542   1425.70679     559.6257     475.9542
   1425.69153     560.4996     477.0118   1425.69153     560.4996     477.0118
   1425.67627     560.8181     479.3475   1425.67627     560.8181     479.3475
   1425.66101     561.9675     481.5199   1425.66101     561.9675     481.5199
   1425.64575     564.2838     482.6412   1425.64575     564.2838     482.6412
   1425.63049     565.7656     484.3573   1425.63049     565.7656     484.3573
   1425.61523     567.9930     485.5688   1425.61523     567.9930     485.5688
   1425.59998     567.5394     487.3093   1425.59998     567.5394     487.3093
   1425.58472     569.7198     488.9062   1425.58472     569.7198     488.9062
   1425.56946     571.4972     490.0540   1425.56946     571.4972     490.0540
   1425.55420     571.8422     491.5795   1425.55420     571.8422     491.5795
   1425.53894     572.1165     494.1942   1425.53894     572.1165     494.1942
   1425.52368     575.1486     495.8340   1425.52368     575.1486     495.8340
   1425.50842     575.7394     496.3553   1425.50842     575.7394     496.3553
   1425.49316     575.6564     497.4040   1425.49316     575.6564     497.4040
   1425.47791     578.0309     499.3939   1425.47791     578.0309     499.3939
   1425.46265     577.9304     501.2267   1425.46265     577.9304     501.2267
   1425.44739     579.4601     502.0643   1425.44739     579.4601     502.0643
   1425.43213     579.5862     503.8988   1425.43213     579.5862     503.8988
   1425.41687     583.1596     506.0226   1425.41687     583.1596     506.0226
   1425.40161     582.4377     506.4378   1425.40161     582.4377     506.4378
   1425.38635     584.0954     508.2193   1425.38635     584.0954     508.2193
   1425.37109     584.3022     509.8206   1425.37109     584.3022     509.8206
   1425.35583     584.8344     510.3154   1425.35583     584.8344     510.3154
   1425.34058     585.6597     511.4281   1425.34058     585.6597     511.4281
   1425.32532     586.1852     512.8669   1425.32532     586.1852     512.8669
   1425.31006     587.2716     513.4594   1425.31006     587.2716     513.4594
   1425.29480     588.4966     515.8303   1425.29480     588.4966     515.8303
   1425.27954     588.7331     516.7095   1425.27954     588.7331     516.7095
   1425.26428     589.9479     518.2156   1425.26428     589.9479     518.2156
   1425.24902     590.9083     519.4177   1425.24902     590.9083     519.4177
   1425.23376     591.0253     520.6819   1425.23376     591.0253     520.6819
   1425.21851     591.8527     521.8609   1425.21851     591.8527     521.8609
   1425.20325     592.5729     523.3881   1425.20325     592.5729     523.3881
   1425.18799     594.3938     524.3613   1425.18799     594.3938     524.3613
   1425.17273     593.6923     525.3318   1425.17273     593.6923     525.3318
   1425.15747     594.5557     526.2825   1425.15747     594.5557     526.2825
   1425.14221     595.5842     527.2606   1425.14221     595.5842     527.2606
   1425.12695     594.9086     527.9321   1425.12695     594.9086     527.9321
   1425.11169     595.8811     530.3110   1425.11169     595.8811     530.3110
   1425.09644     597.2219     530.8721   1425.09644     597.2219     530.8721
   1425.08118     597.8405     532.1589   1425.08118     597.8405     532.1589
   1425.06592     597.0557     533.0684   1425.06592     597.0557     533.0684
   1425.05066     597.8123     533.8112   1425.05066     597.8123     533.8112
   1425.03540     599.6566     535.2639   1425.03540     599.6566     535.2639
   1425.02014     599.3608     536.5528   1425.02014     599.3608     536.5528
   1425.00488     599.1201     537.2513   1425.00488     599.1201     537.2513
   1424.98962     601.2106     538.2046   1424.98962     601.2106     538.2046
   1424.97437     600.5627     538.5719   1424.97437     600.5627     538.5719
   1424.95911     601.4572     539.7852   1424.95911     601.4572     539.7852
   1424.94385     601.4293     540.7534   1424.94385     601.4293     540.7534
   1424.92859     601.4293     541.9055   1424.92859     601.4293     541.9055
   1424.91333     602.2904     542.6700   1424.91333     602.2904     542.6700
   1424.89807     601.1394     543.3737   1424.89807     601.1394     543.3737
   1424.88281     602.7338     543.7523   1424.88281     602.7338     543.7523
   1424.86755     602.8251     545.5247   1424.86755     602.8251     545.5247
   1424.85229     603.6788     547.1158   1424.85229     603.6788     547.1158
   1424.83704     603.5317     547.2955   1424.83704     603.5317     547.2955
   1424.82178     604.2104     548.0353   1424.82178     604.2104     548.0353
   1424.80652     603.8590     548.7687   1424.80652     603.8590     548.7687
   1424.79126     603.7344     549.3180   1424.79126     603.7344     549.3180
   1424.77600     604.7490     549.4818   1424.77600     604.7490     549.4818
   1424.76074     604.5400     550.8348   1424.76074     604.5400     550.8348
   1424.74548     604.3813     551.9248   1424.74548     604.3813     551.9248
   1424.73022     604.1644     551.9407   1424.73022     604.1644     551.9407
   1424.71497     605.2574     552.8971   1424.71497     605.2574     552.8971
   1424.69971     604.9348     554.2588   1424.69971     604.9348     554.2588
   1424.68445     605.8270     555.4781   1424.68445     605.8270     555.4781
   1424.66919     605.2826     555.9035   1424.66919     605.2826     555.9035
   1424.65393     605.4907     555.6420   1424.65393     605.4907     555.6420
   1424.63867     605.4511     557.3295   1424.63867     605.4511     557.3295
   1424.62341     606.3688     557.7330   1424.62341     606.3688     557.7330
   1424.60815     605.7514     557.8360   1424.60815     605.7514     557.8360
   1424.59290     606.2531     558.0899   1424.59290     606.2531     558.0899
   1424.57764     605.7824     559.1171   1424.57764     605.7824     559.1171
   1424.56238     606.0272     559.2635   1424.56238     606.0272     559.2635
   1424.54712     605.1037     560.4271   1424.54712     605.1037     560.4271
   1424.53186     606.9754     560.8552   1424.53186     606.9754     560.8552
   1424.51660     605.8661     560.6942   1424.51660     605.8661     560.6942
   1424.50134     605.9654     562.8894   1424.50134     605.9654     562.8894
   1424.48608     606.6541     563.3296   1424.48608     606.6541     563.3296
   1424.47083     605.6628     563.0812   1424.47083     605.6628     563.0812
   1424.45557     605.9033     563.9349   1424.45557     605.9033     563.9349
   1424.44031     605.6051     563.7113   1424.44031     605.6051     563.7113
   1424.42505     606.4233     564.6885   1424.42505     606.4233     564.6885
   1424.40979     605.4702     564.4631   1424.40979     605.4702     564.4631
   1424.39453     606.2373     565.2103   1424.39453     606.2373     565.2103
   1424.37927     606.0355     565.8621   1424.37927     606.0355     565.8621
   1424.36401     605.9710     566.8069   1424.36401     605.9710     566.8069
   1424.34875     606.6229     567.5854   1424.34875     606.6229     567.5854
   1424.33350     605.0142     566.3252   1424.33350     605.0142     566.3252
   1424.31824     606.7002     567.2974   1424.31824     606.7002     567.2974
   1424.30298     605.5050     567.5569   1424.30298     605.5050     567.5569
   1424.28772     605.1461     568.9225   1424.28772     605.1461     568.9225
   1424.27246     605.4553     569.1380   1424.27246     605.4553     569.1380
   1424.25720     605.7819     569.6481   1424.25720     605.7819     569.6481
   1424.24194     605.5010     568.7770   1424.24194     605.5010     568.7770
   1424.22668     604.6603     570.1053   1424.22668     604.6603     570.1053
   1424.21143     605.4229     569.9653   1424.21143     605.4229     569.9653
   1424.19617     605.4579     569.0752   1424.19617     605.4579     569.0752
   1424.18091     604.6847     570.9000   1424.18091     604.6847     570.9000
   1424.16565     604.8381     570.2488   1424.16565     604.8381     570.2488
