#     FILENAME=!Skynet_57528_lach-hhg-119_20398_20943.cyb.fits
#     BASENAME=Skynet_57528_lach-hhg-119_20398_20943
#     SRC_NAME=lach-hhg-119
#     OBSERVER=hhgmadison16_9500
#     DATE_OBS=2016-05-20T16:35:41.430
#        OBSID=20398
#      SCANNUM=20943
#          MJD=57528.6925
#          UTC=59830
#     SCANTYPE=track
#     DATAMODE=HIRES
#     TUNEFREQ=1420.0000
# Actual_FREQ1=1420.0000
# Actual_FREQ2=1420.0000
#    LO1Tuning=6870.000
#     RFFILTER=1355_1435
#        OBSBW=-15.6250
#        NCHAN=1024 
#        FOCUS=37.0709
#           RA=00:17:10.97
#          DEC=62:36:36.32
#      RA(hrs)=0.286400
#     DEC(deg)=62.610100
#    AZIM(deg)=326.681
#    ELEV(deg)=54.348
#     IFattens=10.00, 9.00
#      WARNING=None
#    TCAL_XL1=7.9635
#    TCAL_YR1=9.1340
#    TCAL_XL2=7.9635
#    TCAL_YR2=9.1340
#     TRX_XL1=11.7060
#     TRX_YR1=11.7060
#     TRX_XL2=11.7060
#     TRX_YR2=11.7060
#        TAVE=1.0000
#Freq1(MHz)          XL1          YR1  Freq2(MHz)          XL2          YR2 

   1427.81250     374.3496     277.5985   1427.81250     374.3496     277.5985
   1427.79724     375.6589     277.7711   1427.79724     375.6589     277.7711
   1427.78198     376.1333     278.7444   1427.78198     376.1333     278.7444
   1427.76672     376.8851     279.7035   1427.76672     376.8851     279.7035
   1427.75146     377.9850     280.6463   1427.75146     377.9850     280.6463
   1427.73621     378.1326     281.0284   1427.73621     378.1326     281.0284
   1427.72095     380.1778     281.7286   1427.72095     380.1778     281.7286
   1427.70569     380.4968     283.4394   1427.70569     380.4968     283.4394
   1427.69043     382.0587     284.5568   1427.69043     382.0587     284.5568
   1427.67517     382.9994     285.1718   1427.67517     382.9994     285.1718
   1427.65991     384.3453     286.7444   1427.65991     384.3453     286.7444
   1427.64465     385.2930     287.3006   1427.64465     385.2930     287.3006
   1427.62939     386.6545     288.8205   1427.62939     386.6545     288.8205
   1427.61414     387.3131     290.0095   1427.61414     387.3131     290.0095
   1427.59888     389.1828     291.0004   1427.59888     389.1828     291.0004
   1427.58362     390.3759     292.3031   1427.58362     390.3759     292.3031
   1427.56836     391.7413     293.9313   1427.56836     391.7413     293.9313
   1427.55310     393.7563     295.0353   1427.55310     393.7563     295.0353
   1427.53784     394.7092     296.2114   1427.53784     394.7092     296.2114
   1427.52258     396.6326     298.0528   1427.52258     396.6326     298.0528
   1427.50732     398.5133     299.2396   1427.50732     398.5133     299.2396
   1427.49207     400.5187     300.8162   1427.49207     400.5187     300.8162
   1427.47681     401.7939     302.3727   1427.47681     401.7939     302.3727
   1427.46155     404.3293     304.3511   1427.46155     404.3293     304.3511
   1427.44629     405.6497     305.9181   1427.44629     405.6497     305.9181
   1427.43103     407.6624     307.2492   1427.43103     407.6624     307.2492
   1427.41577     409.8030     308.7153   1427.41577     409.8030     308.7153
   1427.40051     411.3057     310.1106   1427.40051     411.3057     310.1106
   1427.38525     413.2090     312.4123   1427.38525     413.2090     312.4123
   1427.37000     415.9896     313.9727   1427.37000     415.9896     313.9727
   1427.35474     417.9266     315.9282   1427.35474     417.9266     315.9282
   1427.33948     419.1328     318.0843   1427.33948     419.1328     318.0843
   1427.32422     422.2270     319.4975   1427.32422     422.2270     319.4975
   1427.30896     424.2381     321.4030   1427.30896     424.2381     321.4030
   1427.29370     425.9682     323.7285   1427.29370     425.9682     323.7285
   1427.27844     429.0169     325.2102   1427.27844     429.0169     325.2102
   1427.26318     431.6295     327.3654   1427.26318     431.6295     327.3654
   1427.24792     433.9496     329.3660   1427.24792     433.9496     329.3660
   1427.23267     436.0814     331.7445   1427.23267     436.0814     331.7445
   1427.21741     438.6458     332.9433   1427.21741     438.6458     332.9433
   1427.20215     441.4435     335.4043   1427.20215     441.4435     335.4043
   1427.18689     443.3569     337.4892   1427.18689     443.3569     337.4892
   1427.17163     446.7210     340.0831   1427.17163     446.7210     340.0831
   1427.15637     448.5290     341.9696   1427.15637     448.5290     341.9696
   1427.14111     451.3597     344.3747   1427.14111     451.3597     344.3747
   1427.12585     453.3203     347.1534   1427.12585     453.3203     347.1534
   1427.11060     457.1531     349.0003   1427.11060     457.1531     349.0003
   1427.09534     459.3541     350.7334   1427.09534     459.3541     350.7334
   1427.08008     461.9042     353.3629   1427.08008     461.9042     353.3629
   1427.06482     464.1675     356.3671   1427.06482     464.1675     356.3671
   1427.04956     467.2695     358.0758   1427.04956     467.2695     358.0758
   1427.03430     471.3124     360.0672   1427.03430     471.3124     360.0672
   1427.01904     472.4845     362.8358   1427.01904     472.4845     362.8358
   1427.00378     476.3535     364.8654   1427.00378     476.3535     364.8654
   1426.98853     478.5845     367.3692   1426.98853     478.5845     367.3692
   1426.97327     482.7330     370.3956   1426.97327     482.7330     370.3956
   1426.95801     484.3688     372.3535   1426.95801     484.3688     372.3535
   1426.94275     487.9171     374.8062   1426.94275     487.9171     374.8062
   1426.92749     491.1044     376.8747   1426.92749     491.1044     376.8747
   1426.91223     493.7628     379.6057   1426.91223     493.7628     379.6057
   1426.89697     496.5650     382.0341   1426.89697     496.5650     382.0341
   1426.88171     499.4646     384.4142   1426.88171     499.4646     384.4142
   1426.86646     502.6151     387.4075   1426.86646     502.6151     387.4075
   1426.85120     505.5067     388.8800   1426.85120     505.5067     388.8800
   1426.83594     508.4643     392.0963   1426.83594     508.4643     392.0963
   1426.82068     512.6348     394.7648   1426.82068     512.6348     394.7648
   1426.80542     514.8990     396.5850   1426.80542     514.8990     396.5850
   1426.79016     517.6959     399.9195   1426.79016     517.6959     399.9195
   1426.77490     520.6234     402.5004   1426.77490     520.6234     402.5004
   1426.75964     523.6527     404.6128   1426.75964     523.6527     404.6128
   1426.74438     526.7690     406.3091   1426.74438     526.7690     406.3091
   1426.72913     530.2623     409.5396   1426.72913     530.2623     409.5396
   1426.71387     532.9592     412.5586   1426.71387     532.9592     412.5586
   1426.69861     535.6538     415.3382   1426.69861     535.6538     415.3382
   1426.68335     538.8838     418.0340   1426.68335     538.8838     418.0340
   1426.66809     542.7142     420.1468   1426.66809     542.7142     420.1468
   1426.65283     545.6637     422.9215   1426.65283     545.6637     422.9215
   1426.63757     549.1892     424.9716   1426.63757     549.1892     424.9716
   1426.62231     553.8641     433.0502   1426.62231     553.8641     433.0502
   1426.60706     556.1619     432.2260   1426.60706     556.1619     432.2260
   1426.59180     559.6359     433.3746   1426.59180     559.6359     433.3746
   1426.57654     561.2612     435.2380   1426.57654     561.2612     435.2380
   1426.56128     564.8216     438.3031   1426.56128     564.8216     438.3031
   1426.54602     567.1683     440.8912   1426.54602     567.1683     440.8912
   1426.53076     570.0295     442.7408   1426.53076     570.0295     442.7408
   1426.51550     573.3878     445.7114   1426.51550     573.3878     445.7114
   1426.50024     576.6921     448.3511   1426.50024     576.6921     448.3511
   1426.48499     579.8083     450.9375   1426.48499     579.8083     450.9375
   1426.46973     581.3635     453.4603   1426.46973     581.3635     453.4603
   1426.45447     585.3029     455.3219   1426.45447     585.3029     455.3219
   1426.43921     587.7293     457.9838   1426.43921     587.7293     457.9838
   1426.42395     591.3973     460.4794   1426.42395     591.3973     460.4794
   1426.40869     593.9600     463.0121   1426.40869     593.9600     463.0121
   1426.39343     598.2813     466.0237   1426.39343     598.2813     466.0237
   1426.37817     599.6620     467.4676   1426.37817     599.6620     467.4676
   1426.36292     602.4355     471.2032   1426.36292     602.4355     471.2032
   1426.34766     606.4908     473.4976   1426.34766     606.4908     473.4976
   1426.33240     609.2308     475.6317   1426.33240     609.2308     475.6317
   1426.31714     611.8876     478.0867   1426.31714     611.8876     478.0867
   1426.30188     614.3447     480.0740   1426.30188     614.3447     480.0740
   1426.28662     616.5599     482.7173   1426.28662     616.5599     482.7173
   1426.27136     620.9933     484.4376   1426.27136     620.9933     484.4376
   1426.25610     622.8483     487.0334   1426.25610     622.8483     487.0334
   1426.24084     626.3403     489.4567   1426.24084     626.3403     489.4567
   1426.22559     629.2320     492.3882   1426.22559     629.2320     492.3882
   1426.21033     631.3962     494.1764   1426.21033     631.3962     494.1764
   1426.19507     634.1643     497.1610   1426.19507     634.1643     497.1610
   1426.17981     638.1195     499.1408   1426.17981     638.1195     499.1408
   1426.16455     640.2821     501.4719   1426.16455     640.2821     501.4719
   1426.14929     642.3099     504.2050   1426.14929     642.3099     504.2050
   1426.13403     644.8125     506.2593   1426.13403     644.8125     506.2593
   1426.11877     647.8818     507.9079   1426.11877     647.8818     507.9079
   1426.10352     650.0076     510.2742   1426.10352     650.0076     510.2742
   1426.08826     652.5887     513.4499   1426.08826     652.5887     513.4499
   1426.07300     655.6904     515.2765   1426.07300     655.6904     515.2765
   1426.05774     657.1337     516.5798   1426.05774     657.1337     516.5798
   1426.04248     659.8038     519.2132   1426.04248     659.8038     519.2132
   1426.02722     662.7550     521.3636   1426.02722     662.7550     521.3636
   1426.01196     664.7269     523.7348   1426.01196     664.7269     523.7348
   1425.99670     667.2685     526.1624   1425.99670     667.2685     526.1624
   1425.98145     668.7725     527.9682   1425.98145     668.7725     527.9682
   1425.96619     670.8660     530.0089   1425.96619     670.8660     530.0089
   1425.95093     673.9885     532.4564   1425.95093     673.9885     532.4564
   1425.93567     676.8389     534.4089   1425.93567     676.8389     534.4089
   1425.92041     678.0909     536.6200   1425.92041     678.0909     536.6200
   1425.90515     680.4340     539.0251   1425.90515     680.4340     539.0251
   1425.88989     683.1479     541.2454   1425.88989     683.1479     541.2454
   1425.87463     685.4761     542.4225   1425.87463     685.4761     542.4225
   1425.85938     687.8278     544.3417   1425.85938     687.8278     544.3417
   1425.84412     689.1826     546.3050   1425.84412     689.1826     546.3050
   1425.82886     691.5053     549.0501   1425.82886     691.5053     549.0501
   1425.81360     693.9639     549.9873   1425.81360     693.9639     549.9873
   1425.79834     695.7672     552.1917   1425.79834     695.7672     552.1917
   1425.78308     696.9857     554.1624   1425.78308     696.9857     554.1624
   1425.76782     698.7137     556.3029   1425.76782     698.7137     556.3029
   1425.75256     700.3649     556.3904   1425.75256     700.3649     556.3904
   1425.73730     703.8223     560.2460   1425.73730     703.8223     560.2460
   1425.72205     704.6856     561.2291   1425.72205     704.6856     561.2291
   1425.70679     706.4293     563.3739   1425.70679     706.4293     563.3739
   1425.69153     708.7693     563.9646   1425.69153     708.7693     563.9646
   1425.67627     711.0662     566.5580   1425.67627     711.0662     566.5580
   1425.66101     712.6989     567.9989   1425.66101     712.6989     567.9989
   1425.64575     714.1594     569.5804   1425.64575     714.1594     569.5804
   1425.63049     714.0853     572.1369   1425.63049     714.0853     572.1369
   1425.61523     716.3989     573.9325   1425.61523     716.3989     573.9325
   1425.59998     719.1898     575.0104   1425.59998     719.1898     575.0104
   1425.58472     720.6272     576.5867   1425.58472     720.6272     576.5867
   1425.56946     721.5608     577.6401   1425.56946     721.5608     577.6401
   1425.55420     723.0268     580.4014   1425.55420     723.0268     580.4014
   1425.53894     723.6628     581.5477   1425.53894     723.6628     581.5477
   1425.52368     726.7825     583.1680   1425.52368     726.7825     583.1680
   1425.50842     727.2335     584.4553   1425.50842     727.2335     584.4553
   1425.49316     727.1587     586.2585   1425.49316     727.1587     586.2585
   1425.47791     729.4506     588.3954   1425.47791     729.4506     588.3954
   1425.46265     730.5752     589.5908   1425.46265     730.5752     589.5908
   1425.44739     731.6844     589.7424   1425.44739     731.6844     589.7424
   1425.43213     734.2578     591.0911   1425.43213     734.2578     591.0911
   1425.41687     736.4169     593.4460   1425.41687     736.4169     593.4460
   1425.40161     736.7014     595.4610   1425.40161     736.7014     595.4610
   1425.38635     736.8632     596.6452   1425.38635     736.8632     596.6452
   1425.37109     738.5866     597.4088   1425.37109     738.5866     597.4088
   1425.35583     740.6478     598.6704   1425.35583     740.6478     598.6704
   1425.34058     740.9731     599.9872   1425.34058     740.9731     599.9872
   1425.32532     740.7600     600.8936   1425.32532     740.7600     600.8936
   1425.31006     741.9837     602.6093   1425.31006     741.9837     602.6093
   1425.29480     744.7596     603.8998   1425.29480     744.7596     603.8998
   1425.27954     744.2292     605.3516   1425.27954     744.2292     605.3516
   1425.26428     746.3853     606.8349   1425.26428     746.3853     606.8349
   1425.24902     745.2991     607.9538   1425.24902     745.2991     607.9538
   1425.23376     747.3229     609.2457   1425.23376     747.3229     609.2457
   1425.21851     748.7089     609.3482   1425.21851     748.7089     609.3482
   1425.20325     749.5310     610.5895   1425.20325     749.5310     610.5895
   1425.18799     750.5762     612.5098   1425.18799     750.5762     612.5098
   1425.17273     750.2841     613.3168   1425.17273     750.2841     613.3168
   1425.15747     751.4788     615.0369   1425.15747     751.4788     615.0369
   1425.14221     753.1849     614.9971   1425.14221     753.1849     614.9971
   1425.12695     752.4151     616.2478   1425.12695     752.4151     616.2478
   1425.11169     752.8536     618.7668   1425.11169     752.8536     618.7668
   1425.09644     754.1786     618.6777   1425.09644     754.1786     618.6777
   1425.08118     754.6020     619.2400   1425.08118     754.6020     619.2400
   1425.06592     754.6425     620.2100   1425.06592     754.6425     620.2100
   1425.05066     756.3499     622.3136   1425.05066     756.3499     622.3136
   1425.03540     756.1323     623.7890   1425.03540     756.1323     623.7890
   1425.02014     756.3557     623.4325   1425.02014     756.3557     623.4325
   1425.00488     758.2000     624.2286   1425.00488     758.2000     624.2286
   1424.98962     758.2457     625.2090   1424.98962     758.2457     625.2090
   1424.97437     758.0518     626.1839   1424.97437     758.0518     626.1839
   1424.95911     757.1021     627.7655   1424.95911     757.1021     627.7655
   1424.94385     757.7528     628.1862   1424.94385     757.7528     628.1862
   1424.92859     759.2905     629.5168   1424.92859     759.2905     629.5168
   1424.91333     760.4424     629.9102   1424.91333     760.4424     629.9102
   1424.89807     759.3947     630.5408   1424.89807     759.3947     630.5408
   1424.88281     760.4073     633.1354   1424.88281     760.4073     633.1354
   1424.86755     761.4916     632.9919   1424.86755     761.4916     632.9919
   1424.85229     761.2958     632.4023   1424.85229     761.2958     632.4023
   1424.83704     759.5892     634.1022   1424.83704     759.5892     634.1022
   1424.82178     761.2432     634.6420   1424.82178     761.2432     634.6420
   1424.80652     760.5737     635.9802   1424.80652     760.5737     635.9802
   1424.79126     761.0792     635.6104   1424.79126     761.0792     635.6104
   1424.77600     760.7624     637.6565   1424.77600     760.7624     637.6565
   1424.76074     762.7679     637.5885   1424.76074     762.7679     637.5885
   1424.74548     761.2877     638.3599   1424.74548     761.2877     638.3599
   1424.73022     761.0658     637.7801   1424.73022     761.0658     637.7801
   1424.71497     762.9189     639.1615   1424.71497     762.9189     639.1615
   1424.69971     761.7327     640.4844   1424.69971     761.7327     640.4844
   1424.68445     761.9327     641.2321   1424.68445     761.9327     641.2321
   1424.66919     760.9966     640.2502   1424.66919     760.9966     640.2502
   1424.65393     763.0109     640.5710   1424.65393     763.0109     640.5710
   1424.63867     763.4492     642.2747   1424.63867     763.4492     642.2747
   1424.62341     762.1770     642.4254   1424.62341     762.1770     642.4254
   1424.60815     762.8531     643.6664   1424.60815     762.8531     643.6664
   1424.59290     763.4146     644.4949   1424.59290     763.4146     644.4949
   1424.57764     762.3839     645.1264   1424.57764     762.3839     645.1264
   1424.56238     761.7389     645.2386   1424.56238     761.7389     645.2386
   1424.54712     761.4247     645.6557   1424.54712     761.4247     645.6557
   1424.53186     762.4557     645.2736   1424.53186     762.4557     645.2736
   1424.51660     761.1077     644.7182   1424.51660     761.1077     644.7182
   1424.50134     761.5531     646.9187   1424.50134     761.5531     646.9187
   1424.48608     761.9237     648.1733   1424.48608     761.9237     648.1733
   1424.47083     762.0403     647.9886   1424.47083     762.0403     647.9886
   1424.45557     762.0048     648.6133   1424.45557     762.0048     648.6133
   1424.44031     761.7432     648.8979   1424.44031     761.7432     648.8979
   1424.42505     760.9391     649.5875   1424.42505     760.9391     649.5875
   1424.40979     759.7241     649.6469   1424.40979     759.7241     649.6469
   1424.39453     760.8091     650.1488   1424.39453     760.8091     650.1488
   1424.37927     761.2330     650.0928   1424.37927     761.2330     650.0928
   1424.36401     760.9293     651.4303   1424.36401     760.9293     651.4303
   1424.34875     760.9149     651.8997   1424.34875     760.9149     651.8997
   1424.33350     759.7888     650.7334   1424.33350     759.7888     650.7334
   1424.31824     759.7983     651.8914   1424.31824     759.7983     651.8914
   1424.30298     758.8322     652.2357   1424.30298     758.8322     652.2357
   1424.28772     759.4704     650.9343   1424.28772     759.4704     650.9343
   1424.27246     759.0215     651.6223   1424.27246     759.0215     651.6223
   1424.25720     758.8713     652.2089   1424.25720     758.8713     652.2089
   1424.24194     758.5970     653.2086   1424.24194     758.5970     653.2086
   1424.22668     758.3004     652.2761   1424.22668     758.3004     652.2761
   1424.21143     758.8193     653.5561   1424.21143     758.8193     653.5561
   1424.19617     758.4866     653.1505   1424.19617     758.4866     653.1505
   1424.18091     757.3913     652.7263   1424.18091     757.3913     652.7263
   1424.16565     757.5699     653.8412   1424.16565     757.5699     653.8412
