#     FILENAME=!Skynet_57528_lach-hhg-176_20563_20999.cyb.fits
#     BASENAME=Skynet_57528_lach-hhg-176_20563_20999
#     SRC_NAME=lach-hhg-176
#     OBSERVER=hhgmadison16_9500
#     DATE_OBS=2016-05-20T18:32:07.620
#        OBSID=20563
#      SCANNUM=20999
#          MJD=57528.7734
#          UTC=66816
#     SCANTYPE=track
#     DATAMODE=HIRES
#     TUNEFREQ=1420.0000
# Actual_FREQ1=1420.0000
# Actual_FREQ2=1420.0000
#    LO1Tuning=6870.000
#     RFFILTER=1355_1435
#        OBSBW=-15.6250
#        NCHAN=1024 
#        FOCUS=37.0709
#           RA=05:35:43.12
#          DEC=32:19:39.15
#      RA(hrs)=5.595300
#     DEC(deg)=32.327500
#    AZIM(deg)=133.804
#    ELEV(deg)=81.469
#     IFattens=10.00, 9.00
#      WARNING=None
#    TCAL_XL1=7.9635
#    TCAL_YR1=9.1340
#    TCAL_XL2=7.9635
#    TCAL_YR2=9.1340
#     TRX_XL1=11.7060
#     TRX_YR1=11.7060
#     TRX_XL2=11.7060
#     TRX_YR2=11.7060
#        TAVE=1.0000
#Freq1(MHz)          XL1          YR1  Freq2(MHz)          XL2          YR2 

   1427.81250     379.6288     342.9001   1427.81250     379.6288     342.9001
   1427.79724     379.9961     345.1364   1427.79724     379.9961     345.1364
   1427.78198     380.8931     347.0872   1427.78198     380.8931     347.0872
   1427.76672     381.8036     349.5190   1427.76672     381.8036     349.5190
   1427.75146     382.4164     350.1950   1427.75146     382.4164     350.1950
   1427.73621     382.9695     352.6754   1427.73621     382.9695     352.6754
   1427.72095     383.7351     354.3837   1427.72095     383.7351     354.3837
   1427.70569     384.1273     356.5387   1427.70569     384.1273     356.5387
   1427.69043     385.9441     359.1714   1427.69043     385.9441     359.1714
   1427.67517     387.0143     360.5272   1427.67517     387.0143     360.5272
   1427.65991     388.1174     362.8622   1427.65991     388.1174     362.8622
   1427.64465     388.9426     364.4576   1427.64465     388.9426     364.4576
   1427.62939     390.8296     367.0813   1427.62939     390.8296     367.0813
   1427.61414     390.9544     368.7988   1427.61414     390.9544     368.7988
   1427.59888     392.5755     371.9322   1427.59888     392.5755     371.9322
   1427.58362     393.9095     373.7698   1427.58362     393.9095     373.7698
   1427.56836     396.0297     376.1454   1427.56836     396.0297     376.1454
   1427.55310     397.0150     378.5906   1427.55310     397.0150     378.5906
   1427.53784     399.0461     380.4152   1427.53784     399.0461     380.4152
   1427.52258     400.1561     383.6605   1427.52258     400.1561     383.6605
   1427.50732     402.3841     386.4720   1427.50732     402.3841     386.4720
   1427.49207     403.5559     388.5401   1427.49207     403.5559     388.5401
   1427.47681     405.0103     391.2608   1427.47681     405.0103     391.2608
   1427.46155     407.2643     393.7955   1427.46155     407.2643     393.7955
   1427.44629     408.4384     396.4347   1427.44629     408.4384     396.4347
   1427.43103     410.6370     398.9825   1427.43103     410.6370     398.9825
   1427.41577     413.0447     401.9110   1427.41577     413.0447     401.9110
   1427.40051     414.1564     404.4836   1427.40051     414.1564     404.4836
   1427.38525     416.8825     407.4289   1427.38525     416.8825     407.4289
   1427.37000     418.5516     410.1492   1427.37000     418.5516     410.1492
   1427.35474     420.3367     412.9682   1427.35474     420.3367     412.9682
   1427.33948     422.9182     415.0970   1427.33948     422.9182     415.0970
   1427.32422     424.5400     418.8396   1427.32422     424.5400     418.8396
   1427.30896     427.7713     421.3897   1427.30896     427.7713     421.3897
   1427.29370     428.7039     424.6138   1427.29370     428.7039     424.6138
   1427.27844     431.2668     428.0622   1427.27844     431.2668     428.0622
   1427.26318     433.3335     429.7071   1427.26318     433.3335     429.7071
   1427.24792     436.2867     432.7900   1427.24792     436.2867     432.7900
   1427.23267     439.1055     435.7543   1427.23267     439.1055     435.7543
   1427.21741     440.1316     439.3016   1427.21741     440.1316     439.3016
   1427.20215     443.0609     442.3960   1427.20215     443.0609     442.3960
   1427.18689     445.5125     445.3159   1427.18689     445.5125     445.3159
   1427.17163     447.7458     448.1914   1427.17163     447.7458     448.1914
   1427.15637     451.4431     451.2878   1427.15637     451.4431     451.2878
   1427.14111     453.7504     453.8008   1427.14111     453.7504     453.8008
   1427.12585     456.0246     456.9860   1427.12585     456.0246     456.9860
   1427.11060     458.6924     459.9844   1427.11060     458.6924     459.9844
   1427.09534     460.9586     463.1342   1427.09534     460.9586     463.1342
   1427.08008     464.3481     465.8952   1427.08008     464.3481     465.8952
   1427.06482     466.7165     469.9798   1427.06482     466.7165     469.9798
   1427.04956     468.7907     472.3119   1427.04956     468.7907     472.3119
   1427.03430     472.3546     475.2419   1427.03430     472.3546     475.2419
   1427.01904     474.7157     477.9814   1427.01904     474.7157     477.9814
   1427.00378     477.5728     481.1013   1427.00378     477.5728     481.1013
   1426.98853     480.4503     484.0562   1426.98853     480.4503     484.0562
   1426.97327     483.4825     487.4520   1426.97327     483.4825     487.4520
   1426.95801     486.1950     490.5698   1426.95801     486.1950     490.5698
   1426.94275     489.4210     493.6353   1426.94275     489.4210     493.6353
   1426.92749     492.5166     496.6663   1426.92749     492.5166     496.6663
   1426.91223     495.3856     498.9775   1426.91223     495.3856     498.9775
   1426.89697     498.2264     501.5556   1426.89697     498.2264     501.5556
   1426.88171     501.2396     504.9350   1426.88171     501.2396     504.9350
   1426.86646     504.3086     507.4076   1426.86646     504.3086     507.4076
   1426.85120     507.5750     511.1325   1426.85120     507.5750     511.1325
   1426.83594     509.9819     513.1811   1426.83594     509.9819     513.1811
   1426.82068     512.6593     516.1537   1426.82068     512.6593     516.1537
   1426.80542     516.3342     518.2272   1426.80542     516.3342     518.2272
   1426.79016     518.7450     521.6288   1426.79016     518.7450     521.6288
   1426.77490     522.4018     524.0307   1426.77490     522.4018     524.0307
   1426.75964     525.1587     527.6517   1426.75964     525.1587     527.6517
   1426.74438     528.3399     530.4957   1426.74438     528.3399     530.4957
   1426.72913     531.0821     533.1512   1426.72913     531.0821     533.1512
   1426.71387     535.0480     535.1115   1426.71387     535.0480     535.1115
   1426.69861     537.5591     537.6581   1426.69861     537.5591     537.6581
   1426.68335     539.8386     541.6193   1426.68335     539.8386     541.6193
   1426.66809     543.6356     544.0310   1426.66809     543.6356     544.0310
   1426.65283     546.8102     546.0210   1426.65283     546.8102     546.0210
   1426.63757     550.5238     548.8730   1426.63757     550.5238     548.8730
   1426.62231     557.4376     552.5999   1426.62231     557.4376     552.5999
   1426.60706     556.6838     553.5496   1426.60706     556.6838     553.5496
   1426.59180     559.3896     556.4091   1426.59180     559.3896     556.4091
   1426.57654     562.1560     558.5280   1426.57654     562.1560     558.5280
   1426.56128     566.5486     561.1188   1426.56128     566.5486     561.1188
   1426.54602     569.0600     563.7578   1426.54602     569.0600     563.7578
   1426.53076     571.8706     565.8223   1426.53076     571.8706     565.8223
   1426.51550     574.5092     566.8435   1426.51550     574.5092     566.8435
   1426.50024     577.3801     570.5498   1426.50024     577.3801     570.5498
   1426.48499     581.2518     572.5956   1426.48499     581.2518     572.5956
   1426.46973     584.0220     574.7422   1426.46973     584.0220     574.7422
   1426.45447     587.3650     577.2457   1426.45447     587.3650     577.2457
   1426.43921     590.7034     578.8271   1426.43921     590.7034     578.8271
   1426.42395     593.2191     581.6286   1426.42395     593.2191     581.6286
   1426.40869     597.1506     582.7819   1426.40869     597.1506     582.7819
   1426.39343     600.1940     585.9735   1426.39343     600.1940     585.9735
   1426.37817     603.0078     587.5157   1426.37817     603.0078     587.5157
   1426.36292     604.3941     589.2839   1426.36292     604.3941     589.2839
   1426.34766     607.6959     591.1932   1426.34766     607.6959     591.1932
   1426.33240     610.7745     592.9481   1426.33240     610.7745     592.9481
   1426.31714     614.3965     594.9177   1426.31714     614.3965     594.9177
   1426.30188     617.8969     596.5541   1426.30188     617.8969     596.5541
   1426.28662     620.4409     598.6531   1426.28662     620.4409     598.6531
   1426.27136     623.1069     601.3329   1426.27136     623.1069     601.3329
   1426.25610     626.3751     601.9972   1426.25610     626.3751     601.9972
   1426.24084     628.0151     604.4455   1426.24084     628.0151     604.4455
   1426.22559     633.0690     606.8781   1426.22559     633.0690     606.8781
   1426.21033     635.0276     607.6992   1426.21033     635.0276     607.6992
   1426.19507     637.2905     609.3461   1426.19507     637.2905     609.3461
   1426.17981     639.6670     611.1393   1426.17981     639.6670     611.1393
   1426.16455     643.2906     612.9598   1426.16455     643.2906     612.9598
   1426.14929     646.1376     614.3615   1426.14929     646.1376     614.3615
   1426.13403     648.4319     615.7747   1426.13403     648.4319     615.7747
   1426.11877     652.1450     617.4547   1426.11877     652.1450     617.4547
   1426.10352     653.9206     618.5544   1426.10352     653.9206     618.5544
   1426.08826     656.8480     619.2784   1426.08826     656.8480     619.2784
   1426.07300     659.2526     621.0248   1426.07300     659.2526     621.0248
   1426.05774     661.7095     621.0614   1426.05774     661.7095     621.0614
   1426.04248     664.5889     623.6466   1426.04248     664.5889     623.6466
   1426.02722     666.3512     625.5114   1426.02722     666.3512     625.5114
   1426.01196     668.8578     626.3439   1426.01196     668.8578     626.3439
   1425.99670     672.1189     627.8799   1425.99670     672.1189     627.8799
   1425.98145     674.0358     629.2185   1425.98145     674.0358     629.2185
   1425.96619     677.1757     629.6614   1425.96619     677.1757     629.6614
   1425.95093     679.3808     631.0160   1425.95093     679.3808     631.0160
   1425.93567     683.0126     632.1491   1425.93567     683.0126     632.1491
   1425.92041     684.4059     632.0223   1425.92041     684.4059     632.0223
   1425.90515     686.2123     633.6849   1425.90515     686.2123     633.6849
   1425.88989     688.7897     634.3555   1425.88989     688.7897     634.3555
   1425.87463     691.0840     637.4238   1425.87463     691.0840     637.4238
   1425.85938     693.7302     636.6147   1425.85938     693.7302     636.6147
   1425.84412     694.9194     637.4349   1425.84412     694.9194     637.4349
   1425.82886     696.8248     638.6345   1425.82886     696.8248     638.6345
   1425.81360     699.3646     640.0340   1425.81360     699.3646     640.0340
   1425.79834     701.6502     639.9293   1425.79834     701.6502     639.9293
   1425.78308     704.4642     640.7198   1425.78308     704.4642     640.7198
   1425.76782     705.8464     641.4313   1425.76782     705.8464     641.4313
   1425.75256     707.9871     641.2814   1425.75256     707.9871     641.2814
   1425.73730     711.1768     643.5814   1425.73730     711.1768     643.5814
   1425.72205     712.3712     643.9460   1425.72205     712.3712     643.9460
   1425.70679     713.9872     643.7271   1425.70679     713.9872     643.7271
   1425.69153     715.4907     645.4169   1425.69153     715.4907     645.4169
   1425.67627     717.8538     645.7545   1425.67627     717.8538     645.7545
   1425.66101     719.7084     646.8752   1425.66101     719.7084     646.8752
   1425.64575     721.8792     646.6486   1425.64575     721.8792     646.6486
   1425.63049     724.2063     647.3599   1425.63049     724.2063     647.3599
   1425.61523     726.3148     647.7476   1425.61523     726.3148     647.7476
   1425.59998     726.4320     647.6501   1425.59998     726.4320     647.6501
   1425.58472     729.4850     649.5408   1425.58472     729.4850     649.5408
   1425.56946     730.6140     650.0334   1425.56946     730.6140     650.0334
   1425.55420     730.5784     649.7067   1425.55420     730.5784     649.7067
   1425.53894     733.8569     650.4188   1425.53894     733.8569     650.4188
   1425.52368     734.6518     650.1611   1425.52368     734.6518     650.1611
   1425.50842     734.6612     650.5369   1425.50842     734.6612     650.5369
   1425.49316     738.8325     651.4459   1425.49316     738.8325     651.4459
   1425.47791     738.7032     650.5357   1425.47791     738.7032     650.5357
   1425.46265     741.6711     650.9541   1425.46265     741.6711     650.9541
   1425.44739     742.1505     651.5031   1425.44739     742.1505     651.5031
   1425.43213     742.7516     651.9350   1425.43213     742.7516     651.9350
   1425.41687     744.4985     652.3734   1425.41687     744.4985     652.3734
   1425.40161     745.6649     651.0610   1425.40161     745.6649     651.0610
   1425.38635     748.3600     651.4438   1425.38635     748.3600     651.4438
   1425.37109     748.3767     652.2382   1425.37109     748.3767     652.2382
   1425.35583     749.6557     653.1202   1425.35583     749.6557     653.1202
   1425.34058     751.6472     652.6951   1425.34058     751.6472     652.6951
   1425.32532     751.5682     652.4015   1425.32532     751.5682     652.4015
   1425.31006     752.6760     652.4852   1425.31006     752.6760     652.4852
   1425.29480     754.4245     651.7483   1425.29480     754.4245     651.7483
   1425.27954     754.2366     652.5513   1425.27954     754.2366     652.5513
   1425.26428     756.0145     652.2568   1425.26428     756.0145     652.2568
   1425.24902     757.6776     652.9192   1425.24902     757.6776     652.9192
   1425.23376     758.2875     651.0192   1425.23376     758.2875     651.0192
   1425.21851     758.3661     652.4177   1425.21851     758.3661     652.4177
   1425.20325     760.0251     652.4585   1425.20325     760.0251     652.4585
   1425.18799     760.8357     652.0599   1425.18799     760.8357     652.0599
   1425.17273     760.1714     651.8358   1425.17273     760.1714     651.8358
   1425.15747     762.8198     652.9326   1425.15747     762.8198     652.9326
   1425.14221     761.8627     651.6163   1425.14221     761.8627     651.6163
   1425.12695     763.6488     651.0336   1425.12695     763.6488     651.0336
   1425.11169     763.6198     651.6368   1425.11169     763.6198     651.6368
   1425.09644     764.2607     651.4778   1425.09644     764.2607     651.4778
   1425.08118     765.2260     650.5184   1425.08118     765.2260     650.5184
   1425.06592     765.9857     651.6796   1425.06592     765.9857     651.6796
   1425.05066     766.1912     649.9212   1425.05066     766.1912     649.9212
   1425.03540     766.8540     649.8473   1425.03540     766.8540     649.8473
   1425.02014     768.8555     650.4720   1425.02014     768.8555     650.4720
   1425.00488     768.5798     648.4680   1425.00488     768.5798     648.4680
   1424.98962     769.5017     650.8737   1424.98962     769.5017     650.8737
   1424.97437     768.5756     650.1736   1424.97437     768.5756     650.1736
   1424.95911     770.4889     648.6459   1424.95911     770.4889     648.6459
   1424.94385     770.5146     649.7519   1424.94385     770.5146     649.7519
   1424.92859     771.1254     649.1873   1424.92859     771.1254     649.1873
   1424.91333     771.3040     646.8547   1424.91333     771.3040     646.8547
   1424.89807     769.6642     647.2563   1424.89807     769.6642     647.2563
   1424.88281     771.8826     647.2018   1424.88281     771.8826     647.2018
   1424.86755     771.2454     646.6436   1424.86755     771.2454     646.6436
   1424.85229     772.2130     647.2771   1424.85229     772.2130     647.2771
   1424.83704     773.1061     646.0455   1424.83704     773.1061     646.0455
   1424.82178     772.3279     644.9561   1424.82178     772.3279     644.9561
   1424.80652     771.9775     644.8504   1424.80652     771.9775     644.8504
   1424.79126     772.6038     644.1801   1424.79126     772.6038     644.1801
   1424.77600     772.9755     644.3061   1424.77600     772.9755     644.3061
   1424.76074     772.6873     643.1088   1424.76074     772.6873     643.1088
   1424.74548     772.9839     643.0576   1424.74548     772.9839     643.0576
   1424.73022     773.4855     643.1545   1424.73022     773.4855     643.1545
   1424.71497     773.1478     642.7845   1424.71497     773.1478     642.7845
   1424.69971     773.7594     642.2048   1424.69971     773.7594     642.2048
   1424.68445     772.9882     640.8181   1424.68445     772.9882     640.8181
   1424.66919     774.1390     641.4042   1424.66919     774.1390     641.4042
   1424.65393     772.3030     639.7510   1424.65393     772.3030     639.7510
   1424.63867     773.2399     638.7011   1424.63867     773.2399     638.7011
   1424.62341     773.2510     638.1353   1424.62341     773.2510     638.1353
   1424.60815     773.0009     637.9995   1424.60815     773.0009     637.9995
   1424.59290     773.5678     639.0568   1424.59290     773.5678     639.0568
   1424.57764     773.7041     637.4197   1424.57764     773.7041     637.4197
   1424.56238     773.5300     637.6925   1424.56238     773.5300     637.6925
   1424.54712     772.3868     637.1188   1424.54712     772.3868     637.1188
   1424.53186     772.6264     636.4785   1424.53186     772.6264     636.4785
   1424.51660     772.4361     635.9950   1424.51660     772.4361     635.9950
   1424.50134     772.6219     634.9077   1424.50134     772.6219     634.9077
   1424.48608     773.7589     633.5116   1424.48608     773.7589     633.5116
   1424.47083     772.6074     634.9128   1424.47083     772.6074     634.9128
   1424.45557     772.6065     633.4026   1424.45557     772.6065     633.4026
   1424.44031     771.4944     632.0247   1424.44031     771.4944     632.0247
   1424.42505     771.3248     632.4214   1424.42505     771.3248     632.4214
   1424.40979     772.1669     631.7289   1424.40979     772.1669     631.7289
   1424.39453     770.8431     631.5785   1424.39453     770.8431     631.5785
   1424.37927     770.7949     630.6893   1424.37927     770.7949     630.6893
   1424.36401     770.7689     630.4941   1424.36401     770.7689     630.4941
   1424.34875     770.1688     628.7910   1424.34875     770.1688     628.7910
   1424.33350     770.2823     627.5280   1424.33350     770.2823     627.5280
   1424.31824     769.0004     626.8674   1424.31824     769.0004     626.8674
   1424.30298     769.9679     626.0146   1424.30298     769.9679     626.0146
   1424.28772     768.6573     626.3355   1424.28772     768.6573     626.3355
   1424.27246     768.1345     625.1849   1424.27246     768.1345     625.1849
   1424.25720     768.9986     624.6254   1424.25720     768.9986     624.6254
   1424.24194     767.8117     624.3344   1424.24194     767.8117     624.3344
   1424.22668     767.0486     623.4722   1424.22668     767.0486     623.4722
   1424.21143     767.3261     622.8716   1424.21143     767.3261     622.8716
   1424.19617     766.2167     622.4429   1424.19617     766.2167     622.4429
   1424.18091     766.0605     622.1121   1424.18091     766.0605     622.1121
   1424.16565     765.9468     620.0471   1424.16565     765.9468     620.0471
