#     FILENAME=!Skynet_57528_lach-cc-83_20526_20929.cyb.fits
#     BASENAME=Skynet_57528_lach-cc-83_20526_20929
#     SRC_NAME=lach-cc-83
#     OBSERVER=ccmadison16_9505
#     DATE_OBS=2016-05-20T16:07:36.870
#        OBSID=20526
#      SCANNUM=20929
#          MJD=57528.6730
#          UTC=58145
#     SCANTYPE=track
#     DATAMODE=HIRES
#     TUNEFREQ=1420.0000
# Actual_FREQ1=1420.0000
# Actual_FREQ2=1420.0000
#    LO1Tuning=6870.000
#     RFFILTER=1355_1435
#        OBSBW=-15.6250
#        NCHAN=1024 
#        FOCUS=37.0709
#           RA=20:45:42.03
#          DEC=43:02:09.50
#      RA(hrs)=20.761700
#     DEC(deg)=43.036000
#    AZIM(deg)=305.406
#    ELEV(deg)=25.485
#     IFattens=11.00, 10.00
#      WARNING=None
#    TCAL_XL1=7.9635
#    TCAL_YR1=9.1340
#    TCAL_XL2=7.9635
#    TCAL_YR2=9.1340
#     TRX_XL1=11.7060
#     TRX_YR1=11.7060
#     TRX_XL2=11.7060
#     TRX_YR2=11.7060
#        TAVE=1.0000
#Freq1(MHz)          XL1          YR1  Freq2(MHz)          XL2          YR2 

   1427.81250     332.2106     277.3603   1427.81250     332.2106     277.3603
   1427.79724     332.7006     277.5822   1427.79724     332.7006     277.5822
   1427.78198     333.2344     278.4752   1427.78198     333.2344     278.4752
   1427.76672     334.0788     279.0261   1427.76672     334.0788     279.0261
   1427.75146     335.0685     280.1225   1427.75146     335.0685     280.1225
   1427.73621     335.1133     280.4727   1427.73621     335.1133     280.4727
   1427.72095     336.4581     281.1266   1427.72095     336.4581     281.1266
   1427.70569     337.2359     282.1021   1427.70569     337.2359     282.1021
   1427.69043     337.5430     283.1235   1427.69043     337.5430     283.1235
   1427.67517     338.5944     283.9658   1427.67517     338.5944     283.9658
   1427.65991     339.8436     284.8817   1427.65991     339.8436     284.8817
   1427.64465     340.9028     285.8581   1427.64465     340.9028     285.8581
   1427.62939     341.7249     285.9792   1427.62939     341.7249     285.9792
   1427.61414     343.0672     287.4453   1427.61414     343.0672     287.4453
   1427.59888     344.1980     288.8643   1427.59888     344.1980     288.8643
   1427.58362     345.5055     289.7950   1427.58362     345.5055     289.7950
   1427.56836     346.5576     291.2904   1427.56836     346.5576     291.2904
   1427.55310     348.0292     291.9487   1427.55310     348.0292     291.9487
   1427.53784     348.9704     293.1247   1427.53784     348.9704     293.1247
   1427.52258     350.4655     294.7193   1427.52258     350.4655     294.7193
   1427.50732     352.0198     296.1580   1427.50732     352.0198     296.1580
   1427.49207     353.7075     297.1875   1427.49207     353.7075     297.1875
   1427.47681     355.4619     298.5196   1427.47681     355.4619     298.5196
   1427.46155     356.6258     300.4348   1427.46155     356.6258     300.4348
   1427.44629     358.7123     301.4704   1427.44629     358.7123     301.4704
   1427.43103     359.7362     303.0062   1427.43103     359.7362     303.0062
   1427.41577     361.4218     304.4172   1427.41577     361.4218     304.4172
   1427.40051     363.5380     305.6066   1427.40051     363.5380     305.6066
   1427.38525     364.8647     307.5218   1427.38525     364.8647     307.5218
   1427.37000     366.5099     309.0544   1427.37000     366.5099     309.0544
   1427.35474     368.6660     310.7285   1427.35474     368.6660     310.7285
   1427.33948     370.9863     312.5526   1427.33948     370.9863     312.5526
   1427.32422     372.4052     315.0703   1427.32422     372.4052     315.0703
   1427.30896     374.2967     315.8488   1427.30896     374.2967     315.8488
   1427.29370     375.7359     318.2276   1427.29370     375.7359     318.2276
   1427.27844     378.4040     319.4868   1427.27844     378.4040     319.4868
   1427.26318     380.7043     320.8929   1427.26318     380.7043     320.8929
   1427.24792     382.4535     323.1210   1427.24792     382.4535     323.1210
   1427.23267     385.1246     325.0302   1427.23267     385.1246     325.0302
   1427.21741     387.1595     327.6779   1427.21741     387.1595     327.6779
   1427.20215     389.0865     328.9141   1427.20215     389.0865     328.9141
   1427.18689     391.1129     330.6743   1427.18689     391.1129     330.6743
   1427.17163     392.8257     332.4426   1427.17163     392.8257     332.4426
   1427.15637     395.7769     334.6182   1427.15637     395.7769     334.6182
   1427.14111     397.2906     336.5683   1427.14111     397.2906     336.5683
   1427.12585     400.1872     338.4145   1427.12585     400.1872     338.4145
   1427.11060     403.1360     341.1501   1427.11060     403.1360     341.1501
   1427.09534     405.0829     343.1543   1427.09534     405.0829     343.1543
   1427.08008     407.9110     345.0253   1427.08008     407.9110     345.0253
   1427.06482     408.9816     346.6794   1427.06482     408.9816     346.6794
   1427.04956     412.4961     348.4297   1427.04956     412.4961     348.4297
   1427.03430     414.5907     351.1702   1427.03430     414.5907     351.1702
   1427.01904     417.4186     354.0488   1427.01904     417.4186     354.0488
   1427.00378     419.3817     355.7153   1427.00378     419.3817     355.7153
   1426.98853     422.2338     358.3355   1426.98853     422.2338     358.3355
   1426.97327     424.9479     360.2177   1426.97327     424.9479     360.2177
   1426.95801     427.0165     362.7388   1426.95801     427.0165     362.7388
   1426.94275     430.6590     364.3294   1426.94275     430.6590     364.3294
   1426.92749     432.9475     367.2343   1426.92749     432.9475     367.2343
   1426.91223     434.9680     369.5137   1426.91223     434.9680     369.5137
   1426.89697     437.4175     370.8463   1426.89697     437.4175     370.8463
   1426.88171     440.1287     373.0515   1426.88171     440.1287     373.0515
   1426.86646     442.9436     375.8424   1426.86646     442.9436     375.8424
   1426.85120     445.6138     378.3636   1426.85120     445.6138     378.3636
   1426.83594     448.0684     380.6328   1426.83594     448.0684     380.6328
   1426.82068     450.6586     382.6209   1426.82068     450.6586     382.6209
   1426.80542     453.1473     384.3986   1426.80542     453.1473     384.3986
   1426.79016     455.6466     387.6685   1426.79016     455.6466     387.6685
   1426.77490     458.9272     389.8689   1426.77490     458.9272     389.8689
   1426.75964     461.8647     391.8305   1426.75964     461.8647     391.8305
   1426.74438     464.9062     394.7545   1426.74438     464.9062     394.7545
   1426.72913     465.9302     396.0091   1426.72913     465.9302     396.0091
   1426.71387     469.7842     399.3537   1426.71387     469.7842     399.3537
   1426.69861     472.1657     401.3986   1426.69861     472.1657     401.3986
   1426.68335     475.2243     403.6430   1426.68335     475.2243     403.6430
   1426.66809     477.8569     404.9688   1426.66809     477.8569     404.9688
   1426.65283     481.3977     408.1816   1426.65283     481.3977     408.1816
   1426.63757     483.3090     410.7748   1426.63757     483.3090     410.7748
   1426.62231     488.0096     412.9854   1426.62231     488.0096     412.9854
   1426.60706     489.4771     414.7003   1426.60706     489.4771     414.7003
   1426.59180     491.4910     417.1459   1426.59180     491.4910     417.1459
   1426.57654     494.2645     419.4426   1426.57654     494.2645     419.4426
   1426.56128     496.2358     421.1186   1426.56128     496.2358     421.1186
   1426.54602     498.6136     423.9042   1426.54602     498.6136     423.9042
   1426.53076     502.4421     426.0918   1426.53076     502.4421     426.0918
   1426.51550     504.3790     428.6627   1426.51550     504.3790     428.6627
   1426.50024     507.3241     430.4532   1426.50024     507.3241     430.4532
   1426.48499     510.9073     432.2480   1426.48499     510.9073     432.2480
   1426.46973     512.3369     435.4251   1426.46973     512.3369     435.4251
   1426.45447     515.3973     437.4247   1426.45447     515.3973     437.4247
   1426.43921     517.6007     439.1987   1426.43921     517.6007     439.1987
   1426.42395     520.3845     441.5794   1426.42395     520.3845     441.5794
   1426.40869     522.1241     444.5240   1426.40869     522.1241     444.5240
   1426.39343     525.8923     445.9157   1426.39343     525.8923     445.9157
   1426.37817     527.4291     448.2040   1426.37817     527.4291     448.2040
   1426.36292     530.9099     450.2512   1426.36292     530.9099     450.2512
   1426.34766     533.3860     452.6069   1426.34766     533.3860     452.6069
   1426.33240     535.9915     454.6664   1426.33240     535.9915     454.6664
   1426.31714     539.4858     456.6062   1426.31714     539.4858     456.6062
   1426.30188     541.2852     458.4164   1426.30188     541.2852     458.4164
   1426.28662     543.2212     461.8002   1426.28662     543.2212     461.8002
   1426.27136     546.3776     462.8435   1426.27136     546.3776     462.8435
   1426.25610     547.8724     465.3741   1426.25610     547.8724     465.3741
   1426.24084     551.3741     467.0909   1426.24084     551.3741     467.0909
   1426.22559     553.4430     468.5176   1426.22559     553.4430     468.5176
   1426.21033     555.8210     471.5254   1426.21033     555.8210     471.5254
   1426.19507     557.3359     472.7182   1426.19507     557.3359     472.7182
   1426.17981     560.2925     475.0126   1426.17981     560.2925     475.0126
   1426.16455     562.5875     476.8011   1426.16455     562.5875     476.8011
   1426.14929     565.1313     478.9785   1426.14929     565.1313     478.9785
   1426.13403     568.5443     481.1808   1426.13403     568.5443     481.1808
   1426.11877     569.7496     482.4369   1426.11877     569.7496     482.4369
   1426.10352     572.3294     485.5106   1426.10352     572.3294     485.5106
   1426.08826     574.6075     486.5286   1426.08826     574.6075     486.5286
   1426.07300     576.7780     488.4872   1426.07300     576.7780     488.4872
   1426.05774     579.1682     490.0041   1426.05774     579.1682     490.0041
   1426.04248     580.4595     492.3692   1426.04248     580.4595     492.3692
   1426.02722     583.7044     493.2626   1426.02722     583.7044     493.2626
   1426.01196     585.1340     495.8689   1426.01196     585.1340     495.8689
   1425.99670     587.4774     497.5490   1425.99670     587.4774     497.5490
   1425.98145     589.6915     498.8863   1425.98145     589.6915     498.8863
   1425.96619     591.5834     501.4055   1425.96619     591.5834     501.4055
   1425.95093     593.7778     502.2485   1425.95093     593.7778     502.2485
   1425.93567     595.7074     503.5001   1425.93567     595.7074     503.5001
   1425.92041     598.3396     505.7343   1425.92041     598.3396     505.7343
   1425.90515     600.0446     508.0747   1425.90515     600.0446     508.0747
   1425.88989     601.2006     509.0772   1425.88989     601.2006     509.0772
   1425.87463     603.1219     510.5945   1425.87463     603.1219     510.5945
   1425.85938     605.6191     512.8862   1425.85938     605.6191     512.8862
   1425.84412     607.0683     513.2494   1425.84412     607.0683     513.2494
   1425.82886     607.9338     515.7795   1425.82886     607.9338     515.7795
   1425.81360     609.9277     517.4392   1425.81360     609.9277     517.4392
   1425.79834     611.4777     518.8301   1425.79834     611.4777     518.8301
   1425.78308     614.9952     519.9902   1425.78308     614.9952     519.9902
   1425.76782     616.1926     521.6416   1425.76782     616.1926     521.6416
   1425.75256     618.6996     523.2971   1425.75256     618.6996     523.2971
   1425.73730     617.8772     524.3917   1425.73730     617.8772     524.3917
   1425.72205     621.3809     526.4717   1425.72205     621.3809     526.4717
   1425.70679     622.1912     528.8034   1425.70679     622.1912     528.8034
   1425.69153     624.3196     529.1505   1425.69153     624.3196     529.1505
   1425.67627     625.8321     530.3926   1425.67627     625.8321     530.3926
   1425.66101     627.0280     532.0994   1425.66101     627.0280     532.0994
   1425.64575     628.9509     533.0787   1425.64575     628.9509     533.0787
   1425.63049     629.5737     534.0677   1425.63049     629.5737     534.0677
   1425.61523     631.6786     534.7574   1425.61523     631.6786     534.7574
   1425.59998     632.7812     536.8931   1425.59998     632.7812     536.8931
   1425.58472     634.4451     537.9431   1425.58472     634.4451     537.9431
   1425.56946     636.1561     540.1157   1425.56946     636.1561     540.1157
   1425.55420     637.1990     541.1895   1425.55420     637.1990     541.1895
   1425.53894     638.6491     543.2614   1425.53894     638.6491     543.2614
   1425.52368     640.1516     543.3456   1425.52368     640.1516     543.3456
   1425.50842     640.0662     544.2974   1425.50842     640.0662     544.2974
   1425.49316     642.6254     546.3557   1425.49316     642.6254     546.3557
   1425.47791     643.6018     546.3023   1425.47791     643.6018     546.3023
   1425.46265     644.8519     548.8414   1425.46265     644.8519     548.8414
   1425.44739     645.7344     549.2868   1425.44739     645.7344     549.2868
   1425.43213     647.3093     551.4319   1425.43213     647.3093     551.4319
   1425.41687     648.8259     553.0015   1425.41687     648.8259     553.0015
   1425.40161     649.4907     552.2982   1425.40161     649.4907     552.2982
   1425.38635     650.6506     554.2864   1425.38635     650.6506     554.2864
   1425.37109     650.8416     555.4990   1425.37109     650.8416     555.4990
   1425.35583     652.4600     555.9981   1425.35583     652.4600     555.9981
   1425.34058     654.0079     557.1667   1425.34058     654.0079     557.1667
   1425.32532     654.0331     558.4173   1425.32532     654.0331     558.4173
   1425.31006     655.6629     559.5408   1425.31006     655.6629     559.5408
   1425.29480     655.8094     560.0803   1425.29480     655.8094     560.0803
   1425.27954     656.6870     561.9663   1425.27954     656.6870     561.9663
   1425.26428     657.6727     562.1224   1425.26428     657.6727     562.1224
   1425.24902     660.3296     563.3242   1425.24902     660.3296     563.3242
   1425.23376     658.7615     564.6557   1425.23376     658.7615     564.6557
   1425.21851     659.8069     564.7444   1425.21851     659.8069     564.7444
   1425.20325     660.4568     566.4894   1425.20325     660.4568     566.4894
   1425.18799     661.8220     568.2305   1425.18799     661.8220     568.2305
   1425.17273     662.5457     568.4275   1425.17273     662.5457     568.4275
   1425.15747     663.3445     569.6870   1425.15747     663.3445     569.6870
   1425.14221     664.2471     570.2754   1425.14221     664.2471     570.2754
   1425.12695     664.8164     571.3973   1425.12695     664.8164     571.3973
   1425.11169     664.6209     572.1991   1425.11169     664.6209     572.1991
   1425.09644     665.3265     573.3862   1425.09644     665.3265     573.3862
   1425.08118     667.0067     574.4536   1425.08118     667.0067     574.4536
   1425.06592     666.9665     574.7531   1425.06592     666.9665     574.7531
   1425.05066     667.1671     575.6935   1425.05066     667.1671     575.6935
   1425.03540     668.3456     576.6956   1425.03540     668.3456     576.6956
   1425.02014     668.2054     578.3707   1425.02014     668.2054     578.3707
   1425.00488     668.3748     578.1133   1425.00488     668.3748     578.1133
   1424.98962     670.1920     578.7659   1424.98962     670.1920     578.7659
   1424.97437     670.4640     579.9735   1424.97437     670.4640     579.9735
   1424.95911     671.1763     580.5573   1424.95911     671.1763     580.5573
   1424.94385     671.8471     581.9808   1424.94385     671.8471     581.9808
   1424.92859     671.6168     582.5439   1424.92859     671.6168     582.5439
   1424.91333     672.3033     584.7103   1424.91333     672.3033     584.7103
   1424.89807     672.9027     584.0887   1424.89807     672.9027     584.0887
   1424.88281     673.9822     585.8561   1424.88281     673.9822     585.8561
   1424.86755     672.4271     586.9080   1424.86755     672.4271     586.9080
   1424.85229     674.3965     586.2987   1424.85229     674.3965     586.2987
   1424.83704     673.6880     586.8768   1424.83704     673.6880     586.8768
   1424.82178     674.6791     588.8034   1424.82178     674.6791     588.8034
   1424.80652     674.2903     588.2798   1424.80652     674.2903     588.2798
   1424.79126     675.0388     588.3297   1424.79126     675.0388     588.3297
   1424.77600     674.4041     589.3692   1424.77600     674.4041     589.3692
   1424.76074     675.3331     590.3680   1424.76074     675.3331     590.3680
   1424.74548     674.4307     591.9039   1424.74548     674.4307     591.9039
   1424.73022     674.9318     592.2504   1424.73022     674.9318     592.2504
   1424.71497     675.7514     592.3128   1424.71497     675.7514     592.3128
   1424.69971     675.8384     592.9866   1424.69971     675.8384     592.9866
   1424.68445     675.9012     593.9848   1424.68445     675.9012     593.9848
   1424.66919     676.5068     594.0756   1424.66919     676.5068     594.0756
   1424.65393     676.6861     595.7125   1424.65393     676.6861     595.7125
   1424.63867     676.1096     596.4377   1424.63867     676.1096     596.4377
   1424.62341     677.0668     597.6287   1424.62341     677.0668     597.6287
   1424.60815     677.2663     597.1833   1424.60815     677.2663     597.1833
   1424.59290     676.3870     597.9761   1424.59290     676.3870     597.9761
   1424.57764     677.2647     598.8019   1424.57764     677.2647     598.8019
   1424.56238     677.0684     599.7929   1424.56238     677.0684     599.7929
   1424.54712     677.3239     599.4721   1424.54712     677.3239     599.4721
   1424.53186     676.7079     599.7725   1424.53186     676.7079     599.7725
   1424.51660     677.1636     600.7371   1424.51660     677.1636     600.7371
   1424.50134     677.0839     602.0148   1424.50134     677.0839     602.0148
   1424.48608     677.5866     602.0758   1424.48608     677.5866     602.0758
   1424.47083     678.3177     603.1904   1424.47083     678.3177     603.1904
   1424.45557     677.0720     603.3588   1424.45557     677.0720     603.3588
   1424.44031     677.7225     604.5163   1424.44031     677.7225     604.5163
   1424.42505     677.9431     604.0768   1424.42505     677.9431     604.0768
   1424.40979     677.0182     605.6264   1424.40979     677.0182     605.6264
   1424.39453     676.7929     604.6910   1424.39453     676.7929     604.6910
   1424.37927     677.5197     605.9398   1424.37927     677.5197     605.9398
   1424.36401     677.4838     606.6628   1424.36401     677.4838     606.6628
   1424.34875     676.9986     606.8484   1424.34875     676.9986     606.8484
   1424.33350     677.4963     607.8925   1424.33350     677.4963     607.8925
   1424.31824     676.3405     608.3410   1424.31824     676.3405     608.3410
   1424.30298     677.3438     609.1114   1424.30298     677.3438     609.1114
   1424.28772     676.5758     609.4349   1424.28772     676.5758     609.4349
   1424.27246     678.2447     610.4625   1424.27246     678.2447     610.4625
   1424.25720     677.0428     610.4406   1424.25720     677.0428     610.4406
   1424.24194     676.3086     609.9769   1424.24194     676.3086     609.9769
   1424.22668     677.4244     611.5736   1424.22668     677.4244     611.5736
   1424.21143     677.6071     611.6976   1424.21143     677.6071     611.6976
   1424.19617     676.6449     613.0994   1424.19617     676.6449     613.0994
   1424.18091     676.6197     612.9962   1424.18091     676.6197     612.9962
   1424.16565     676.3583     613.0147   1424.16565     676.3583     613.0147
