#     FILENAME=!Skynet_57528_lach-cc-228_20644_21029.cyb.fits
#     BASENAME=Skynet_57528_lach-cc-228_20644_21029
#     SRC_NAME=lach-cc-228
#     OBSERVER=ccmadison16_9505
#     DATE_OBS=2016-05-20T19:34:01.750
#        OBSID=20644
#      SCANNUM=21029
#          MJD=57528.8164
#          UTC=70531
#     SCANTYPE=track
#     DATAMODE=HIRES
#     TUNEFREQ=1420.0000
# Actual_FREQ1=1420.0000
# Actual_FREQ2=1420.0000
#    LO1Tuning=6870.000
#     RFFILTER=1355_1435
#        OBSBW=-15.6250
#        NCHAN=1024 
#        FOCUS=37.0709
#           RA=07:19:23.39
#          DEC=-13:22:41.07
#      RA(hrs)=7.323200
#     DEC(deg)=-13.378100
#    AZIM(deg)=158.413
#    ELEV(deg)=35.474
#     IFattens=10.00, 9.00
#      WARNING=None
#    TCAL_XL1=7.9635
#    TCAL_YR1=9.1340
#    TCAL_XL2=7.9635
#    TCAL_YR2=9.1340
#     TRX_XL1=11.7060
#     TRX_YR1=11.7060
#     TRX_XL2=11.7060
#     TRX_YR2=11.7060
#        TAVE=1.0000
#Freq1(MHz)          XL1          YR1  Freq2(MHz)          XL2          YR2 

   1427.81250     362.0921     280.8650   1427.81250     362.0921     280.8650
   1427.79724     362.4460     281.4573   1427.79724     362.4460     281.4573
   1427.78198     363.7628     281.9641   1427.78198     363.7628     281.9641
   1427.76672     363.7027     282.2957   1427.76672     363.7027     282.2957
   1427.75146     365.0131     283.2003   1427.75146     365.0131     283.2003
   1427.73621     366.5679     283.7257   1427.73621     366.5679     283.7257
   1427.72095     367.0269     284.3697   1427.72095     367.0269     284.3697
   1427.70569     368.2723     285.3268   1427.70569     368.2723     285.3268
   1427.69043     369.4018     285.9146   1427.69043     369.4018     285.9146
   1427.67517     370.6488     286.8314   1427.67517     370.6488     286.8314
   1427.65991     371.0155     287.7158   1427.65991     371.0155     287.7158
   1427.64465     371.9647     288.3309   1427.64465     371.9647     288.3309
   1427.62939     374.2330     289.3293   1427.62939     374.2330     289.3293
   1427.61414     374.6935     289.9998   1427.61414     374.6935     289.9998
   1427.59888     375.8079     291.5236   1427.59888     375.8079     291.5236
   1427.58362     377.7124     292.4004   1427.58362     377.7124     292.4004
   1427.56836     379.6529     293.2820   1427.56836     379.6529     293.2820
   1427.55310     380.5631     294.5345   1427.55310     380.5631     294.5345
   1427.53784     382.3391     295.3397   1427.53784     382.3391     295.3397
   1427.52258     384.1747     297.2856   1427.52258     384.1747     297.2856
   1427.50732     385.4109     298.0887   1427.50732     385.4109     298.0887
   1427.49207     387.0630     299.0607   1427.49207     387.0630     299.0607
   1427.47681     388.6543     300.8033   1427.47681     388.6543     300.8033
   1427.46155     392.1832     302.3313   1427.46155     392.1832     302.3313
   1427.44629     392.3035     303.4977   1427.44629     392.3035     303.4977
   1427.43103     394.0483     304.8375   1427.43103     394.0483     304.8375
   1427.41577     395.7588     305.9544   1427.41577     395.7588     305.9544
   1427.40051     398.0708     307.6802   1427.40051     398.0708     307.6802
   1427.38525     400.0515     309.1485   1427.38525     400.0515     309.1485
   1427.37000     401.9666     310.6691   1427.37000     401.9666     310.6691
   1427.35474     404.2492     311.7115   1427.35474     404.2492     311.7115
   1427.33948     405.9863     314.3794   1427.33948     405.9863     314.3794
   1427.32422     408.0980     315.4599   1427.32422     408.0980     315.4599
   1427.30896     409.7532     317.1577   1427.30896     409.7532     317.1577
   1427.29370     412.3101     319.2094   1427.29370     412.3101     319.2094
   1427.27844     414.3287     320.7373   1427.27844     414.3287     320.7373
   1427.26318     416.5068     322.0029   1427.26318     416.5068     322.0029
   1427.24792     418.7496     324.1811   1427.24792     418.7496     324.1811
   1427.23267     421.0577     326.3525   1427.23267     421.0577     326.3525
   1427.21741     424.2417     327.8403   1427.21741     424.2417     327.8403
   1427.20215     426.1142     329.5607   1427.20215     426.1142     329.5607
   1427.18689     427.9519     331.2916   1427.18689     427.9519     331.2916
   1427.17163     431.1226     333.6792   1427.17163     431.1226     333.6792
   1427.15637     433.4957     335.8632   1427.15637     433.4957     335.8632
   1427.14111     436.6025     337.6945   1427.14111     436.6025     337.6945
   1427.12585     438.1645     338.7516   1427.12585     438.1645     338.7516
   1427.11060     440.8211     341.8986   1427.11060     440.8211     341.8986
   1427.09534     444.0606     343.2980   1427.09534     444.0606     343.2980
   1427.08008     446.3023     345.4632   1427.08008     446.3023     345.4632
   1427.06482     449.2037     347.2776   1427.06482     449.2037     347.2776
   1427.04956     451.1946     349.7128   1427.04956     451.1946     349.7128
   1427.03430     454.1868     351.4193   1427.03430     454.1868     351.4193
   1427.01904     456.1273     353.7252   1427.01904     456.1273     353.7252
   1427.00378     459.2797     356.4878   1427.00378     459.2797     356.4878
   1426.98853     461.8635     358.7602   1426.98853     461.8635     358.7602
   1426.97327     464.9609     360.7763   1426.97327     464.9609     360.7763
   1426.95801     467.6588     362.7636   1426.95801     467.6588     362.7636
   1426.94275     470.5171     364.5802   1426.94275     470.5171     364.5802
   1426.92749     472.7477     366.7016   1426.92749     472.7477     366.7016
   1426.91223     476.7114     369.5381   1426.91223     476.7114     369.5381
   1426.89697     479.1477     371.7340   1426.89697     479.1477     371.7340
   1426.88171     482.0353     374.1244   1426.88171     482.0353     374.1244
   1426.86646     484.4240     375.9621   1426.86646     484.4240     375.9621
   1426.85120     487.2932     378.7509   1426.85120     487.2932     378.7509
   1426.83594     489.0946     381.2441   1426.83594     489.0946     381.2441
   1426.82068     492.7320     382.8954   1426.82068     492.7320     382.8954
   1426.80542     495.8847     385.4584   1426.80542     495.8847     385.4584
   1426.79016     497.6671     388.8606   1426.79016     497.6671     388.8606
   1426.77490     501.4299     390.4665   1426.77490     501.4299     390.4665
   1426.75964     503.7815     393.1061   1426.75964     503.7815     393.1061
   1426.74438     506.8410     395.5055   1426.74438     506.8410     395.5055
   1426.72913     509.8053     397.7639   1426.72913     509.8053     397.7639
   1426.71387     512.4268     399.8347   1426.71387     512.4268     399.8347
   1426.69861     515.8781     402.4064   1426.69861     515.8781     402.4064
   1426.68335     519.7295     404.0838   1426.68335     519.7295     404.0838
   1426.66809     521.6314     407.2884   1426.66809     521.6314     407.2884
   1426.65283     524.2502     409.2066   1426.65283     524.2502     409.2066
   1426.63757     527.4968     412.3484   1426.63757     527.4968     412.3484
   1426.62231     538.6108     417.5750   1426.62231     538.6108     417.5750
   1426.60706     533.3370     417.3788   1426.60706     533.3370     417.3788
   1426.59180     535.9658     419.9016   1426.59180     535.9658     419.9016
   1426.57654     538.9832     422.4220   1426.57654     538.9832     422.4220
   1426.56128     541.1265     424.6359   1426.56128     541.1265     424.6359
   1426.54602     544.6321     427.5843   1426.54602     544.6321     427.5843
   1426.53076     546.6125     429.2848   1426.53076     546.6125     429.2848
   1426.51550     550.0015     432.0057   1426.51550     550.0015     432.0057
   1426.50024     552.6279     434.3046   1426.50024     552.6279     434.3046
   1426.48499     555.4232     436.7730   1426.48499     555.4232     436.7730
   1426.46973     558.7258     439.2372   1426.46973     558.7258     439.2372
   1426.45447     561.0992     441.9316   1426.45447     561.0992     441.9316
   1426.43921     564.5801     444.6674   1426.43921     564.5801     444.6674
   1426.42395     567.6393     446.1632   1426.42395     567.6393     446.1632
   1426.40869     569.2687     449.5205   1426.40869     569.2687     449.5205
   1426.39343     573.3961     452.4550   1426.39343     573.3961     452.4550
   1426.37817     574.7493     454.3831   1426.37817     574.7493     454.3831
   1426.36292     578.3415     456.2658   1426.36292     578.3415     456.2658
   1426.34766     580.0137     459.3890   1426.34766     580.0137     459.3890
   1426.33240     582.9199     461.4557   1426.33240     582.9199     461.4557
   1426.31714     585.5044     464.5055   1426.31714     585.5044     464.5055
   1426.30188     588.4865     467.0043   1426.30188     588.4865     467.0043
   1426.28662     590.9072     469.4996   1426.28662     590.9072     469.4996
   1426.27136     593.9240     472.2406   1426.27136     593.9240     472.2406
   1426.25610     597.1524     473.0365   1426.25610     597.1524     473.0365
   1426.24084     598.8021     476.4556   1426.24084     598.8021     476.4556
   1426.22559     601.9066     478.4491   1426.22559     601.9066     478.4491
   1426.21033     604.6957     481.7588   1426.21033     604.6957     481.7588
   1426.19507     606.4510     483.4215   1426.19507     606.4510     483.4215
   1426.17981     609.2076     485.8440   1426.17981     609.2076     485.8440
   1426.16455     611.6220     487.6599   1426.16455     611.6220     487.6599
   1426.14929     614.1303     489.9300   1426.14929     614.1303     489.9300
   1426.13403     615.7879     492.8810   1426.13403     615.7879     492.8810
   1426.11877     619.1453     495.3327   1426.11877     619.1453     495.3327
   1426.10352     621.4977     497.7861   1426.10352     621.4977     497.7861
   1426.08826     623.3080     499.9010   1426.08826     623.3080     499.9010
   1426.07300     626.2585     502.2473   1426.07300     626.2585     502.2473
   1426.05774     628.3288     504.3203   1426.05774     628.3288     504.3203
   1426.04248     629.8867     507.4456   1426.04248     629.8867     507.4456
   1426.02722     634.2162     509.8607   1426.02722     634.2162     509.8607
   1426.01196     635.3487     511.6020   1426.01196     635.3487     511.6020
   1425.99670     637.9599     514.0973   1425.99670     637.9599     514.0973
   1425.98145     640.3446     516.6225   1425.98145     640.3446     516.6225
   1425.96619     641.1129     518.2410   1425.96619     641.1129     518.2410
   1425.95093     643.8228     521.0587   1425.95093     643.8228     521.0587
   1425.93567     646.0453     523.7115   1425.93567     646.0453     523.7115
   1425.92041     648.1015     526.8570   1425.92041     648.1015     526.8570
   1425.90515     650.0045     528.7151   1425.90515     650.0045     528.7151
   1425.88989     651.5155     529.3078   1425.88989     651.5155     529.3078
   1425.87463     653.4086     532.1765   1425.87463     653.4086     532.1765
   1425.85938     656.2855     534.1173   1425.85938     656.2855     534.1173
   1425.84412     657.4901     535.7590   1425.84412     657.4901     535.7590
   1425.82886     659.7944     538.8943   1425.82886     659.7944     538.8943
   1425.81360     661.8628     540.7467   1425.81360     661.8628     540.7467
   1425.79834     664.1437     542.7878   1425.79834     664.1437     542.7878
   1425.78308     665.6309     545.4800   1425.78308     665.6309     545.4800
   1425.76782     666.6061     547.9325   1425.76782     666.6061     547.9325
   1425.75256     668.6638     549.5565   1425.75256     668.6638     549.5565
   1425.73730     671.4874     551.0541   1425.73730     671.4874     551.0541
   1425.72205     672.4536     553.6130   1425.72205     672.4536     553.6130
   1425.70679     674.1200     555.1360   1425.70679     674.1200     555.1360
   1425.69153     675.5680     558.4150   1425.69153     675.5680     558.4150
   1425.67627     677.3375     559.4182   1425.67627     677.3375     559.4182
   1425.66101     679.7379     562.1962   1425.66101     679.7379     562.1962
   1425.64575     679.7042     564.3474   1425.64575     679.7042     564.3474
   1425.63049     682.1604     566.4500   1425.63049     682.1604     566.4500
   1425.61523     683.8853     568.3054   1425.61523     683.8853     568.3054
   1425.59998     685.4065     570.2265   1425.59998     685.4065     570.2265
   1425.58472     687.6434     571.8975   1425.58472     687.6434     571.8975
   1425.56946     688.1368     573.9817   1425.56946     688.1368     573.9817
   1425.55420     689.9528     575.6293   1425.55420     689.9528     575.6293
   1425.53894     691.2089     578.2020   1425.53894     691.2089     578.2020
   1425.52368     692.4441     579.7266   1425.52368     692.4441     579.7266
   1425.50842     693.2255     581.7171   1425.50842     693.2255     581.7171
   1425.49316     695.1200     584.5152   1425.49316     695.1200     584.5152
   1425.47791     696.9841     586.0883   1425.47791     696.9841     586.0883
   1425.46265     697.5009     587.0737   1425.46265     697.5009     587.0737
   1425.44739     699.7835     589.2023   1425.44739     699.7835     589.2023
   1425.43213     700.2900     590.6262   1425.43213     700.2900     590.6262
   1425.41687     702.4186     594.3667   1425.41687     702.4186     594.3667
   1425.40161     702.1903     594.9567   1425.40161     702.1903     594.9567
   1425.38635     704.1802     595.8727   1425.38635     704.1802     595.8727
   1425.37109     703.9625     598.7639   1425.37109     703.9625     598.7639
   1425.35583     704.9413     599.9642   1425.35583     704.9413     599.9642
   1425.34058     706.9194     602.5112   1425.34058     706.9194     602.5112
   1425.32532     708.0319     603.8712   1425.32532     708.0319     603.8712
   1425.31006     708.9180     604.7892   1425.31006     708.9180     604.7892
   1425.29480     710.4407     606.8400   1425.29480     710.4407     606.8400
   1425.27954     709.6028     609.1874   1425.27954     709.6028     609.1874
   1425.26428     711.7427     610.9263   1425.26428     711.7427     610.9263
   1425.24902     713.5596     611.9129   1425.24902     713.5596     611.9129
   1425.23376     714.5477     612.8316   1425.23376     714.5477     612.8316
   1425.21851     713.9746     614.5263   1425.21851     713.9746     614.5263
   1425.20325     714.6141     617.2406   1425.20325     714.6141     617.2406
   1425.18799     716.1555     618.3230   1425.18799     716.1555     618.3230
   1425.17273     716.0446     619.2670   1425.17273     716.0446     619.2670
   1425.15747     716.9034     621.6315   1425.15747     716.9034     621.6315
   1425.14221     717.9510     623.6121   1425.14221     717.9510     623.6121
   1425.12695     718.6083     624.2048   1425.12695     718.6083     624.2048
   1425.11169     719.1233     626.2001   1425.11169     719.1233     626.2001
   1425.09644     720.1398     626.9252   1425.09644     720.1398     626.9252
   1425.08118     720.5785     628.6826   1425.08118     720.5785     628.6826
   1425.06592     722.5694     629.8484   1425.06592     722.5694     629.8484
   1425.05066     722.0986     631.8433   1425.05066     722.0986     631.8433
   1425.03540     721.7802     634.6096   1425.03540     721.7802     634.6096
   1425.02014     722.5345     633.6775   1425.02014     722.5345     633.6775
   1425.00488     722.6447     635.4954   1425.00488     722.6447     635.4954
   1424.98962     724.3030     637.0651   1424.98962     724.3030     637.0651
   1424.97437     723.9216     638.0298   1424.97437     723.9216     638.0298
   1424.95911     724.8887     638.8274   1424.95911     724.8887     638.8274
   1424.94385     724.2573     640.7410   1424.94385     724.2573     640.7410
   1424.92859     725.5974     641.6349   1424.92859     725.5974     641.6349
   1424.91333     727.5093     644.3415   1424.91333     727.5093     644.3415
   1424.89807     725.2924     644.3925   1424.89807     725.2924     644.3925
   1424.88281     725.9846     646.1818   1424.88281     725.9846     646.1818
   1424.86755     727.9854     646.5110   1424.86755     727.9854     646.5110
   1424.85229     726.9944     647.8604   1424.85229     726.9944     647.8604
   1424.83704     727.1749     649.4700   1424.83704     727.1749     649.4700
   1424.82178     728.4133     650.7523   1424.82178     728.4133     650.7523
   1424.80652     727.7781     651.1091   1424.80652     727.7781     651.1091
   1424.79126     728.2756     652.8490   1424.79126     728.2756     652.8490
   1424.77600     729.1780     654.4312   1424.77600     729.1780     654.4312
   1424.76074     728.3691     655.1760   1424.76074     728.3691     655.1760
   1424.74548     730.1294     655.7603   1424.74548     730.1294     655.7603
   1424.73022     728.1210     656.6368   1424.73022     728.1210     656.6368
   1424.71497     730.9896     657.3888   1424.71497     730.9896     657.3888
   1424.69971     730.3132     658.2891   1424.69971     730.3132     658.2891
   1424.68445     730.1079     660.2858   1424.68445     730.1079     660.2858
   1424.66919     730.0786     660.1938   1424.66919     730.0786     660.1938
   1424.65393     729.8686     661.5931   1424.65393     729.8686     661.5931
   1424.63867     730.1125     662.9212   1424.63867     730.1125     662.9212
   1424.62341     731.0211     663.0057   1424.62341     731.0211     663.0057
   1424.60815     730.4822     664.7794   1424.60815     730.4822     664.7794
   1424.59290     730.8904     664.1266   1424.59290     730.8904     664.1266
   1424.57764     730.4385     665.6497   1424.57764     730.4385     665.6497
   1424.56238     729.8995     666.8885   1424.56238     729.8995     666.8885
   1424.54712     730.6793     666.8476   1424.54712     730.6793     666.8476
   1424.53186     731.7766     667.6416   1424.53186     731.7766     667.6416
   1424.51660     731.6721     667.9534   1424.51660     731.6721     667.9534
   1424.50134     729.4590     669.4811   1424.50134     729.4590     669.4811
   1424.48608     730.8744     670.9265   1424.48608     730.8744     670.9265
   1424.47083     730.0123     671.2913   1424.47083     730.0123     671.2913
   1424.45557     730.7542     672.1733   1424.45557     730.7542     672.1733
   1424.44031     730.4371     673.1958   1424.44031     730.4371     673.1958
   1424.42505     731.1097     673.0403   1424.42505     731.1097     673.0403
   1424.40979     730.7004     673.5203   1424.40979     730.7004     673.5203
   1424.39453     730.7857     674.6182   1424.39453     730.7857     674.6182
   1424.37927     730.1655     674.3233   1424.37927     730.1655     674.3233
   1424.36401     730.5357     676.3782   1424.36401     730.5357     676.3782
   1424.34875     729.7996     676.6615   1424.34875     729.7996     676.6615
   1424.33350     729.0775     675.5971   1424.33350     729.0775     675.5971
   1424.31824     730.8194     676.7600   1424.31824     730.8194     676.7600
   1424.30298     730.4193     676.8017   1424.30298     730.4193     676.8017
   1424.28772     730.9728     678.0862   1424.28772     730.9728     678.0862
   1424.27246     729.7610     676.2813   1424.27246     729.7610     676.2813
   1424.25720     729.9107     679.2323   1424.25720     729.9107     679.2323
   1424.24194     730.3096     678.6437   1424.24194     730.3096     678.6437
   1424.22668     729.9012     680.0994   1424.22668     729.9012     680.0994
   1424.21143     729.6011     680.4685   1424.21143     729.6011     680.4685
   1424.19617     729.8276     680.4457   1424.19617     729.8276     680.4457
   1424.18091     728.3028     681.1885   1424.18091     728.3028     681.1885
   1424.16565     728.7786     680.4408   1424.16565     728.7786     680.4408
