#     FILENAME=!Skynet_57528_lach-cc-226_20641_21032.cyb.fits
#     BASENAME=Skynet_57528_lach-cc-226_20641_21032
#     SRC_NAME=lach-cc-226
#     OBSERVER=ccmadison16_9505
#     DATE_OBS=2016-05-20T19:40:18.250
#        OBSID=20641
#      SCANNUM=21032
#          MJD=57528.8207
#          UTC=70908
#     SCANTYPE=track
#     DATAMODE=HIRES
#     TUNEFREQ=1420.0000
# Actual_FREQ1=1420.0000
# Actual_FREQ2=1420.0000
#    LO1Tuning=6870.000
#     RFFILTER=1355_1435
#        OBSBW=-15.6250
#        NCHAN=1024 
#        FOCUS=37.1148
#           RA=07:15:34.57
#          DEC=-11:36:34.80
#      RA(hrs)=7.259600
#     DEC(deg)=-11.609700
#    AZIM(deg)=160.769
#    ELEV(deg)=37.851
#     IFattens=10.00, 9.00
#      WARNING=None
#    TCAL_XL1=7.9635
#    TCAL_YR1=9.1340
#    TCAL_XL2=7.9635
#    TCAL_YR2=9.1340
#     TRX_XL1=11.7060
#     TRX_YR1=11.7060
#     TRX_XL2=11.7060
#     TRX_YR2=11.7060
#        TAVE=1.0000
#Freq1(MHz)          XL1          YR1  Freq2(MHz)          XL2          YR2 

   1427.81250     357.7017     277.5840   1427.81250     357.7017     277.5840
   1427.79724     358.8315     278.2859   1427.79724     358.8315     278.2859
   1427.78198     358.6402     278.4073   1427.78198     358.6402     278.4073
   1427.76672     359.5752     278.8529   1427.76672     359.5752     278.8529
   1427.75146     360.6536     279.6601   1427.75146     360.6536     279.6601
   1427.73621     361.0494     280.0195   1427.73621     361.0494     280.0195
   1427.72095     362.5422     281.0213   1427.72095     362.5422     281.0213
   1427.70569     363.0437     281.4529   1427.70569     363.0437     281.4529
   1427.69043     364.6555     282.3457   1427.69043     364.6555     282.3457
   1427.67517     366.3347     283.0362   1427.67517     366.3347     283.0362
   1427.65991     367.1822     284.0162   1427.65991     367.1822     284.0162
   1427.64465     368.1687     285.1324   1427.64465     368.1687     285.1324
   1427.62939     369.3296     286.0610   1427.62939     369.3296     286.0610
   1427.61414     370.0456     286.6232   1427.61414     370.0456     286.6232
   1427.59888     371.8822     287.5184   1427.59888     371.8822     287.5184
   1427.58362     373.5540     289.2592   1427.58362     373.5540     289.2592
   1427.56836     375.2329     289.6609   1427.56836     375.2329     289.6609
   1427.55310     376.1531     290.9565   1427.55310     376.1531     290.9565
   1427.53784     377.6074     292.1865   1427.53784     377.6074     292.1865
   1427.52258     378.6996     292.8295   1427.52258     378.6996     292.8295
   1427.50732     380.6934     294.0089   1427.50732     380.6934     294.0089
   1427.49207     382.7445     295.8773   1427.49207     382.7445     295.8773
   1427.47681     384.0210     296.6424   1427.47681     384.0210     296.6424
   1427.46155     385.7852     298.1837   1427.46155     385.7852     298.1837
   1427.44629     388.1464     299.3210   1427.44629     388.1464     299.3210
   1427.43103     389.7736     300.7789   1427.43103     389.7736     300.7789
   1427.41577     391.7824     301.7839   1427.41577     391.7824     301.7839
   1427.40051     393.7275     304.0871   1427.40051     393.7275     304.0871
   1427.38525     395.6199     305.5174   1427.38525     395.6199     305.5174
   1427.37000     397.5484     306.4911   1427.37000     397.5484     306.4911
   1427.35474     399.2015     307.8858   1427.35474     399.2015     307.8858
   1427.33948     401.6935     309.4038   1427.33948     401.6935     309.4038
   1427.32422     403.6769     311.7681   1427.32422     403.6769     311.7681
   1427.30896     405.7694     312.8613   1427.30896     405.7694     312.8613
   1427.29370     408.4207     314.9719   1427.29370     408.4207     314.9719
   1427.27844     410.1381     316.4733   1427.27844     410.1381     316.4733
   1427.26318     412.2570     318.3169   1427.26318     412.2570     318.3169
   1427.24792     414.9349     319.8520   1427.24792     414.9349     319.8520
   1427.23267     416.5692     321.3275   1427.23267     416.5692     321.3275
   1427.21741     419.4949     323.4033   1427.21741     419.4949     323.4033
   1427.20215     421.2083     325.3452   1427.20215     421.2083     325.3452
   1427.18689     423.8392     326.9255   1427.18689     423.8392     326.9255
   1427.17163     425.8788     329.0866   1427.17163     425.8788     329.0866
   1427.15637     428.5447     331.0406   1427.15637     428.5447     331.0406
   1427.14111     431.3493     332.9974   1427.14111     431.3493     332.9974
   1427.12585     433.9263     335.2357   1427.12585     433.9263     335.2357
   1427.11060     436.5225     336.8602   1427.11060     436.5225     336.8602
   1427.09534     439.4468     339.1127   1427.09534     439.4468     339.1127
   1427.08008     440.5714     340.9333   1427.08008     440.5714     340.9333
   1427.06482     444.5912     342.7759   1427.06482     444.5912     342.7759
   1427.04956     446.4928     345.1314   1427.04956     446.4928     345.1314
   1427.03430     449.3967     347.0993   1427.03430     449.3967     347.0993
   1427.01904     451.7760     349.5211   1427.01904     451.7760     349.5211
   1427.00378     454.5737     351.2711   1427.00378     454.5737     351.2711
   1426.98853     457.0443     354.1666   1426.98853     457.0443     354.1666
   1426.97327     459.3598     356.0688   1426.97327     459.3598     356.0688
   1426.95801     462.1427     358.3864   1426.95801     462.1427     358.3864
   1426.94275     465.2840     360.5392   1426.94275     465.2840     360.5392
   1426.92749     468.2527     362.9962   1426.92749     468.2527     362.9962
   1426.91223     470.6333     365.0322   1426.91223     470.6333     365.0322
   1426.89697     473.4901     367.3225   1426.89697     473.4901     367.3225
   1426.88171     476.7404     369.4918   1426.88171     476.7404     369.4918
   1426.86646     479.5067     371.9061   1426.86646     479.5067     371.9061
   1426.85120     482.2109     373.9496   1426.85120     482.2109     373.9496
   1426.83594     483.8357     376.8111   1426.83594     483.8357     376.8111
   1426.82068     487.6553     378.9352   1426.82068     487.6553     378.9352
   1426.80542     491.2164     381.7834   1426.80542     491.2164     381.7834
   1426.79016     492.9966     383.9509   1426.79016     492.9966     383.9509
   1426.77490     496.7509     386.0869   1426.77490     496.7509     386.0869
   1426.75964     499.0794     388.2643   1426.75964     499.0794     388.2643
   1426.74438     501.4097     390.9508   1426.74438     501.4097     390.9508
   1426.72913     504.7758     393.1485   1426.72913     504.7758     393.1485
   1426.71387     507.6339     396.1135   1426.71387     507.6339     396.1135
   1426.69861     510.7067     398.4266   1426.69861     510.7067     398.4266
   1426.68335     512.7612     400.0881   1426.68335     512.7612     400.0881
   1426.66809     515.9183     403.5706   1426.66809     515.9183     403.5706
   1426.65283     519.4403     405.5706   1426.65283     519.4403     405.5706
   1426.63757     521.7882     407.6272   1426.63757     521.7882     407.6272
   1426.62231     526.3275     411.5664   1426.62231     526.3275     411.5664
   1426.60706     527.2896     413.0780   1426.60706     527.2896     413.0780
   1426.59180     530.3975     415.9138   1426.59180     530.3975     415.9138
   1426.57654     532.6296     417.9171   1426.57654     532.6296     417.9171
   1426.56128     536.3775     420.3899   1426.56128     536.3775     420.3899
   1426.54602     537.9492     422.5480   1426.54602     537.9492     422.5480
   1426.53076     540.9182     425.4562   1426.53076     540.9182     425.4562
   1426.51550     544.0377     427.6859   1426.51550     544.0377     427.6859
   1426.50024     547.3599     430.2957   1426.50024     547.3599     430.2957
   1426.48499     548.8767     433.1342   1426.48499     548.8767     433.1342
   1426.46973     551.8774     435.0976   1426.46973     551.8774     435.0976
   1426.45447     554.7819     437.9179   1426.45447     554.7819     437.9179
   1426.43921     557.3348     440.1822   1426.43921     557.3348     440.1822
   1426.42395     561.0500     443.0221   1426.42395     561.0500     443.0221
   1426.40869     563.1136     445.0196   1426.40869     563.1136     445.0196
   1426.39343     565.7222     447.9471   1426.39343     565.7222     447.9471
   1426.37817     568.5689     450.8269   1426.37817     568.5689     450.8269
   1426.36292     571.0314     453.6425   1426.36292     571.0314     453.6425
   1426.34766     574.5477     455.6865   1426.34766     574.5477     455.6865
   1426.33240     576.7561     458.1694   1426.33240     576.7561     458.1694
   1426.31714     579.7089     460.1906   1426.31714     579.7089     460.1906
   1426.30188     582.4868     463.0177   1426.30188     582.4868     463.0177
   1426.28662     585.2668     465.0261   1426.28662     585.2668     465.0261
   1426.27136     587.9234     467.8012   1426.27136     587.9234     467.8012
   1426.25610     590.0031     469.7176   1426.25610     590.0031     469.7176
   1426.24084     592.2659     472.8870   1426.24084     592.2659     472.8870
   1426.22559     594.6797     475.6937   1426.22559     594.6797     475.6937
   1426.21033     596.4040     478.0528   1426.21033     596.4040     478.0528
   1426.19507     599.5641     480.5106   1426.19507     599.5641     480.5106
   1426.17981     602.2195     482.2056   1426.17981     602.2195     482.2056
   1426.16455     604.2961     485.1277   1426.16455     604.2961     485.1277
   1426.14929     606.8519     487.3608   1426.14929     606.8519     487.3608
   1426.13403     609.9349     489.4518   1426.13403     609.9349     489.4518
   1426.11877     612.8092     492.4106   1426.11877     612.8092     492.4106
   1426.10352     613.8640     494.2466   1426.10352     613.8640     494.2466
   1426.08826     617.5366     496.8241   1426.08826     617.5366     496.8241
   1426.07300     619.0095     497.9192   1426.07300     619.0095     497.9192
   1426.05774     620.5649     501.5923   1426.05774     620.5649     501.5923
   1426.04248     622.3020     502.9396   1426.04248     622.3020     502.9396
   1426.02722     625.9173     505.9108   1426.02722     625.9173     505.9108
   1426.01196     627.2459     508.3155   1426.01196     627.2459     508.3155
   1425.99670     629.7281     511.8241   1425.99670     629.7281     511.8241
   1425.98145     631.9404     512.8207   1425.98145     631.9404     512.8207
   1425.96619     633.2292     516.3162   1425.96619     633.2292     516.3162
   1425.95093     636.3511     517.5969   1425.95093     636.3511     517.5969
   1425.93567     637.9835     520.5140   1425.93567     637.9835     520.5140
   1425.92041     639.3187     522.7214   1425.92041     639.3187     522.7214
   1425.90515     642.4541     524.9516   1425.90515     642.4541     524.9516
   1425.88989     644.6760     527.6886   1425.88989     644.6760     527.6886
   1425.87463     645.3129     529.4366   1425.87463     645.3129     529.4366
   1425.85938     648.0805     530.9702   1425.85938     648.0805     530.9702
   1425.84412     650.1695     533.6390   1425.84412     650.1695     533.6390
   1425.82886     650.9214     535.9268   1425.82886     650.9214     535.9268
   1425.81360     654.0159     538.5918   1425.81360     654.0159     538.5918
   1425.79834     655.8117     540.0955   1425.79834     655.8117     540.0955
   1425.78308     657.8505     542.2048   1425.78308     657.8505     542.2048
   1425.76782     657.8640     544.9056   1425.76782     657.8640     544.9056
   1425.75256     660.7695     547.2158   1425.75256     660.7695     547.2158
   1425.73730     661.5154     549.2312   1425.73730     661.5154     549.2312
   1425.72205     663.9903     550.2590   1425.72205     663.9903     550.2590
   1425.70679     665.4589     553.2372   1425.70679     665.4589     553.2372
   1425.69153     667.5613     555.6565   1425.69153     667.5613     555.6565
   1425.67627     669.2687     556.5963   1425.67627     669.2687     556.5963
   1425.66101     670.2665     559.7073   1425.66101     670.2665     559.7073
   1425.64575     672.9241     561.7476   1425.64575     672.9241     561.7476
   1425.63049     674.0534     564.1404   1425.63049     674.0534     564.1404
   1425.61523     675.1366     564.3872   1425.61523     675.1366     564.3872
   1425.59998     676.5798     567.7866   1425.59998     676.5798     567.7866
   1425.58472     677.2793     570.3215   1425.58472     677.2793     570.3215
   1425.56946     679.1329     571.2479   1425.56946     679.1329     571.2479
   1425.55420     680.6794     573.8839   1425.55420     680.6794     573.8839
   1425.53894     682.3263     575.7183   1425.53894     682.3263     575.7183
   1425.52368     683.2013     578.3948   1425.52368     683.2013     578.3948
   1425.50842     684.8942     578.8351   1425.50842     684.8942     578.8351
   1425.49316     685.9898     582.2340   1425.49316     685.9898     582.2340
   1425.47791     686.0435     582.6201   1425.47791     686.0435     582.6201
   1425.46265     688.8150     584.2788   1425.46265     688.8150     584.2788
   1425.44739     689.3217     586.4020   1425.44739     689.3217     586.4020
   1425.43213     690.8531     588.9878   1425.43213     690.8531     588.9878
   1425.41687     692.5368     590.3958   1425.41687     692.5368     590.3958
   1425.40161     693.9901     593.4352   1425.40161     693.9901     593.4352
   1425.38635     693.2545     594.0320   1425.38635     693.2545     594.0320
   1425.37109     694.7512     594.7608   1425.37109     694.7512     594.7608
   1425.35583     695.4714     597.8271   1425.35583     695.4714     597.8271
   1425.34058     697.5636     599.2872   1425.34058     697.5636     599.2872
   1425.32532     698.6237     601.3532   1425.32532     698.6237     601.3532
   1425.31006     698.9167     602.9816   1425.31006     698.9167     602.9816
   1425.29480     700.5788     604.7109   1425.29480     700.5788     604.7109
   1425.27954     700.5348     605.6608   1425.27954     700.5348     605.6608
   1425.26428     701.8184     608.0247   1425.26428     701.8184     608.0247
   1425.24902     702.2401     609.5145   1425.24902     702.2401     609.5145
   1425.23376     703.3694     610.5969   1425.23376     703.3694     610.5969
   1425.21851     703.8773     612.3949   1425.21851     703.8773     612.3949
   1425.20325     704.3149     614.5729   1425.20325     704.3149     614.5729
   1425.18799     704.6427     615.7810   1425.18799     704.6427     615.7810
   1425.17273     706.7595     617.9526   1425.17273     706.7595     617.9526
   1425.15747     706.7644     618.9404   1425.15747     706.7644     618.9404
   1425.14221     707.0259     620.2440   1425.14221     707.0259     620.2440
   1425.12695     709.6027     622.3856   1425.12695     709.6027     622.3856
   1425.11169     708.5804     623.5951   1425.11169     708.5804     623.5951
   1425.09644     709.7636     624.4984   1425.09644     709.7636     624.4984
   1425.08118     709.9118     626.0225   1425.08118     709.9118     626.0225
   1425.06592     712.1498     628.1257   1425.06592     712.1498     628.1257
   1425.05066     710.4048     629.9780   1425.05066     710.4048     629.9780
   1425.03540     711.8201     629.8832   1425.03540     711.8201     629.8832
   1425.02014     712.5537     632.2012   1425.02014     712.5537     632.2012
   1425.00488     712.8895     633.9337   1425.00488     712.8895     633.9337
   1424.98962     713.0214     634.8619   1424.98962     713.0214     634.8619
   1424.97437     715.0278     635.6149   1424.97437     715.0278     635.6149
   1424.95911     713.1943     637.9701   1424.95911     713.1943     637.9701
   1424.94385     714.8685     638.5909   1424.94385     714.8685     638.5909
   1424.92859     715.2108     640.7969   1424.92859     715.2108     640.7969
   1424.91333     715.1945     641.1414   1424.91333     715.1945     641.1414
   1424.89807     715.7757     642.0562   1424.89807     715.7757     642.0562
   1424.88281     716.8314     643.2252   1424.88281     716.8314     643.2252
   1424.86755     716.7407     645.1616   1424.86755     716.7407     645.1616
   1424.85229     717.6595     645.6893   1424.85229     717.6595     645.6893
   1424.83704     717.2776     646.4131   1424.83704     717.2776     646.4131
   1424.82178     717.6245     649.0168   1424.82178     717.6245     649.0168
   1424.80652     716.9960     648.9878   1424.80652     716.9960     648.9878
   1424.79126     718.1113     650.4477   1424.79126     718.1113     650.4477
   1424.77600     717.3732     652.0870   1424.77600     717.3732     652.0870
   1424.76074     718.2932     652.6063   1424.76074     718.2932     652.6063
   1424.74548     719.1432     652.3915   1424.74548     719.1432     652.3915
   1424.73022     719.0883     654.9575   1424.73022     719.0883     654.9575
   1424.71497     719.2158     654.5647   1424.71497     719.2158     654.5647
   1424.69971     718.9442     657.4250   1424.69971     718.9442     657.4250
   1424.68445     720.0188     657.5978   1424.68445     720.0188     657.5978
   1424.66919     719.5940     658.4551   1424.66919     719.5940     658.4551
   1424.65393     720.0351     659.3839   1424.65393     720.0351     659.3839
   1424.63867     719.5960     658.9935   1424.63867     719.5960     658.9935
   1424.62341     720.4432     661.2820   1424.62341     720.4432     661.2820
   1424.60815     720.2054     663.0753   1424.60815     720.2054     663.0753
   1424.59290     720.2529     662.3000   1424.59290     720.2529     662.3000
   1424.57764     719.6368     664.4890   1424.57764     719.6368     664.4890
   1424.56238     720.4561     664.6838   1424.56238     720.4561     664.6838
   1424.54712     719.3498     664.7169   1424.54712     719.3498     664.7169
   1424.53186     720.6767     665.1691   1424.53186     720.6767     665.1691
   1424.51660     720.4481     666.4677   1424.51660     720.4481     666.4677
   1424.50134     720.4584     667.2930   1424.50134     720.4584     667.2930
   1424.48608     719.9564     668.0440   1424.48608     719.9564     668.0440
   1424.47083     720.3121     669.8070   1424.47083     720.3121     669.8070
   1424.45557     720.0037     669.1507   1424.45557     720.0037     669.1507
   1424.44031     721.1145     670.3026   1424.44031     721.1145     670.3026
   1424.42505     719.4988     670.9856   1424.42505     719.4988     670.9856
   1424.40979     720.4327     671.9245   1424.40979     720.4327     671.9245
   1424.39453     720.8541     671.3340   1424.39453     720.8541     671.3340
   1424.37927     720.4822     672.9247   1424.37927     720.4822     672.9247
   1424.36401     720.9761     671.9067   1424.36401     720.9761     671.9067
   1424.34875     720.1698     673.8901   1424.34875     720.1698     673.8901
   1424.33350     720.8568     672.4726   1424.33350     720.8568     672.4726
   1424.31824     719.7834     674.9373   1424.31824     719.7834     674.9373
   1424.30298     720.0246     673.7382   1424.30298     720.0246     673.7382
   1424.28772     720.1838     675.1578   1424.28772     720.1838     675.1578
   1424.27246     720.7402     675.4965   1424.27246     720.7402     675.4965
   1424.25720     720.9024     676.6343   1424.25720     720.9024     676.6343
   1424.24194     719.5991     675.1388   1424.24194     719.5991     675.1388
   1424.22668     718.6718     675.5414   1424.22668     718.6718     675.5414
   1424.21143     719.1736     677.2614   1424.21143     719.1736     677.2614
   1424.19617     719.2426     677.1768   1424.19617     719.2426     677.1768
   1424.18091     719.5859     677.2961   1424.18091     719.5859     677.2961
   1424.16565     718.1854     679.0927   1424.16565     718.1854     679.0927
