#     FILENAME=!Skynet_57528_lach-cc-201_20606_21058.cyb.fits
#     BASENAME=Skynet_57528_lach-cc-201_20606_21058
#     SRC_NAME=lach-cc-201
#     OBSERVER=ccmadison16_9505
#     DATE_OBS=2016-05-20T20:32:52.750
#        OBSID=20606
#      SCANNUM=21058
#          MJD=57528.8572
#          UTC=74062
#     SCANTYPE=track
#     DATAMODE=HIRES
#     TUNEFREQ=1420.0000
# Actual_FREQ1=1420.0000
# Actual_FREQ2=1420.0000
#    LO1Tuning=6870.000
#     RFFILTER=1355_1435
#        OBSBW=-15.6250
#        NCHAN=1024 
#        FOCUS=37.0489
#           RA=06:29:22.78
#          DEC=10:36:10.99
#      RA(hrs)=6.489700
#     DEC(deg)=10.603100
#    AZIM(deg)=199.413
#    ELEV(deg)=60.699
#     IFattens=10.00, 9.00
#      WARNING=None
#    TCAL_XL1=7.9635
#    TCAL_YR1=9.1340
#    TCAL_XL2=7.9635
#    TCAL_YR2=9.1340
#     TRX_XL1=11.7060
#     TRX_YR1=11.7060
#     TRX_XL2=11.7060
#     TRX_YR2=11.7060
#        TAVE=1.0000
#Freq1(MHz)          XL1          YR1  Freq2(MHz)          XL2          YR2 

   1427.81250     363.0511     274.9708   1427.81250     363.0511     274.9708
   1427.79724     363.2006     275.9100   1427.79724     363.2006     275.9100
   1427.78198     364.7731     277.2704   1427.78198     364.7731     277.2704
   1427.76672     365.0553     277.9657   1427.76672     365.0553     277.9657
   1427.75146     366.0086     278.8303   1427.75146     366.0086     278.8303
   1427.73621     366.5381     279.8484   1427.73621     366.5381     279.8484
   1427.72095     367.4943     280.1476   1427.72095     367.4943     280.1476
   1427.70569     368.4474     281.9083   1427.70569     368.4474     281.9083
   1427.69043     369.5805     282.7743   1427.69043     369.5805     282.7743
   1427.67517     370.9270     283.4440   1427.67517     370.9270     283.4440
   1427.65991     371.2357     285.0618   1427.65991     371.2357     285.0618
   1427.64465     373.0131     286.4315   1427.64465     373.0131     286.4315
   1427.62939     373.9723     287.8353   1427.62939     373.9723     287.8353
   1427.61414     374.5531     288.6609   1427.61414     374.5531     288.6609
   1427.59888     376.3334     290.5941   1427.59888     376.3334     290.5941
   1427.58362     377.5426     291.4347   1427.58362     377.5426     291.4347
   1427.56836     378.6332     293.5111   1427.56836     378.6332     293.5111
   1427.55310     380.2008     294.2063   1427.55310     380.2008     294.2063
   1427.53784     382.3580     296.2592   1427.53784     382.3580     296.2592
   1427.52258     383.8713     297.6306   1427.52258     383.8713     297.6306
   1427.50732     385.2179     298.7794   1427.50732     385.2179     298.7794
   1427.49207     387.0100     300.9899   1427.49207     387.0100     300.9899
   1427.47681     388.7139     302.4915   1427.47681     388.7139     302.4915
   1427.46155     390.4742     304.1693   1427.46155     390.4742     304.1693
   1427.44629     392.6106     305.2459   1427.44629     392.6106     305.2459
   1427.43103     393.3977     307.3511   1427.43103     393.3977     307.3511
   1427.41577     396.1193     309.4178   1427.41577     396.1193     309.4178
   1427.40051     397.0782     311.0165   1427.40051     397.0782     311.0165
   1427.38525     398.9983     313.0326   1427.38525     398.9983     313.0326
   1427.37000     401.5482     314.4680   1427.37000     401.5482     314.4680
   1427.35474     403.2382     316.2256   1427.35474     403.2382     316.2256
   1427.33948     405.6146     318.4244   1427.33948     405.6146     318.4244
   1427.32422     407.6868     320.1617   1427.32422     407.6868     320.1617
   1427.30896     409.8658     322.7563   1427.30896     409.8658     322.7563
   1427.29370     412.7066     324.6957   1427.29370     412.7066     324.6957
   1427.27844     413.9389     326.9206   1427.27844     413.9389     326.9206
   1427.26318     417.1524     328.9564   1427.26318     417.1524     328.9564
   1427.24792     419.6310     330.7961   1427.24792     419.6310     330.7961
   1427.23267     421.4612     333.3149   1427.23267     421.4612     333.3149
   1427.21741     423.9978     335.1816   1427.21741     423.9978     335.1816
   1427.20215     426.4448     337.2902   1427.20215     426.4448     337.2902
   1427.18689     429.2134     339.2819   1427.18689     429.2134     339.2819
   1427.17163     430.3817     341.6958   1427.17163     430.3817     341.6958
   1427.15637     433.8681     344.4091   1427.15637     433.8681     344.4091
   1427.14111     435.4017     346.5307   1427.14111     435.4017     346.5307
   1427.12585     438.7008     348.3821   1427.12585     438.7008     348.3821
   1427.11060     440.9805     351.1637   1427.11060     440.9805     351.1637
   1427.09534     443.9161     353.5107   1427.09534     443.9161     353.5107
   1427.08008     446.7072     355.9002   1427.08008     446.7072     355.9002
   1427.06482     449.4378     358.8483   1427.06482     449.4378     358.8483
   1427.04956     451.9777     361.3199   1427.04956     451.9777     361.3199
   1427.03430     454.7114     363.2704   1427.03430     454.7114     363.2704
   1427.01904     457.1519     365.9765   1427.01904     457.1519     365.9765
   1427.00378     460.3692     368.5680   1427.00378     460.3692     368.5680
   1426.98853     462.6339     371.5047   1426.98853     462.6339     371.5047
   1426.97327     465.3998     373.0303   1426.97327     465.3998     373.0303
   1426.95801     468.4614     375.7401   1426.95801     468.4614     375.7401
   1426.94275     472.1580     378.1349   1426.94275     472.1580     378.1349
   1426.92749     474.0461     380.9086   1426.92749     474.0461     380.9086
   1426.91223     477.7021     383.3626   1426.91223     477.7021     383.3626
   1426.89697     480.4126     385.6928   1426.89697     480.4126     385.6928
   1426.88171     483.0172     388.7191   1426.88171     483.0172     388.7191
   1426.86646     486.9467     391.7592   1426.86646     486.9467     391.7592
   1426.85120     489.1040     393.2279   1426.85120     489.1040     393.2279
   1426.83594     491.4073     396.8060   1426.83594     491.4073     396.8060
   1426.82068     494.5052     398.8829   1426.82068     494.5052     398.8829
   1426.80542     499.0329     402.2073   1426.80542     499.0329     402.2073
   1426.79016     501.2916     404.5391   1426.79016     501.2916     404.5391
   1426.77490     504.4733     408.0107   1426.77490     504.4733     408.0107
   1426.75964     507.2994     409.5614   1426.75964     507.2994     409.5614
   1426.74438     509.1695     413.1572   1426.74438     509.1695     413.1572
   1426.72913     513.1800     416.0572   1426.72913     513.1800     416.0572
   1426.71387     515.9487     417.9866   1426.71387     515.9487     417.9866
   1426.69861     518.9484     420.1610   1426.69861     518.9484     420.1610
   1426.68335     522.1137     423.3619   1426.68335     522.1137     423.3619
   1426.66809     525.6240     426.2869   1426.66809     525.6240     426.2869
   1426.65283     527.2783     428.5565   1426.65283     527.2783     428.5565
   1426.63757     530.3353     431.7659   1426.63757     530.3353     431.7659
   1426.62231     533.4341     434.7943   1426.62231     533.4341     434.7943
   1426.60706     537.0411     437.4767   1426.60706     537.0411     437.4767
   1426.59180     540.1976     439.9412   1426.59180     540.1976     439.9412
   1426.57654     543.3530     441.8860   1426.57654     543.3530     441.8860
   1426.56128     546.0142     444.3765   1426.56128     546.0142     444.3765
   1426.54602     549.1071     447.3503   1426.54602     549.1071     447.3503
   1426.53076     552.4772     450.2314   1426.53076     552.4772     450.2314
   1426.51550     554.2123     452.5985   1426.51550     554.2123     452.5985
   1426.50024     558.3290     455.6063   1426.50024     558.3290     455.6063
   1426.48499     560.7159     458.6624   1426.48499     560.7159     458.6624
   1426.46973     563.8748     461.3864   1426.46973     563.8748     461.3864
   1426.45447     566.3440     463.6200   1426.45447     566.3440     463.6200
   1426.43921     569.5264     466.0602   1426.43921     569.5264     466.0602
   1426.42395     573.2507     468.7341   1426.42395     573.2507     468.7341
   1426.40869     575.7015     472.0528   1426.40869     575.7015     472.0528
   1426.39343     578.4517     473.0804   1426.39343     578.4517     473.0804
   1426.37817     582.6814     476.3930   1426.37817     582.6814     476.3930
   1426.36292     584.7671     479.1166   1426.36292     584.7671     479.1166
   1426.34766     587.4935     481.7505   1426.34766     587.4935     481.7505
   1426.33240     589.4181     483.8629   1426.33240     589.4181     483.8629
   1426.31714     593.7650     487.1043   1426.31714     593.7650     487.1043
   1426.30188     595.9194     489.6092   1426.30188     595.9194     489.6092
   1426.28662     599.8079     492.2986   1426.28662     599.8079     492.2986
   1426.27136     600.1602     494.7475   1426.27136     600.1602     494.7475
   1426.25610     604.1476     496.8040   1426.25610     604.1476     496.8040
   1426.24084     607.5312     498.6424   1426.24084     607.5312     498.6424
   1426.22559     608.2939     501.0276   1426.22559     608.2939     501.0276
   1426.21033     611.9417     504.6625   1426.21033     611.9417     504.6625
   1426.19507     615.9355     506.3256   1426.19507     615.9355     506.3256
   1426.17981     617.8205     510.0688   1426.17981     617.8205     510.0688
   1426.16455     620.7388     511.1764   1426.16455     620.7388     511.1764
   1426.14929     622.8959     514.4125   1426.14929     622.8959     514.4125
   1426.13403     625.6333     516.1889   1426.13403     625.6333     516.1889
   1426.11877     628.2924     519.0253   1426.11877     628.2924     519.0253
   1426.10352     630.4154     521.3210   1426.10352     630.4154     521.3210
   1426.08826     632.9764     523.2039   1426.08826     632.9764     523.2039
   1426.07300     635.0069     525.5787   1426.07300     635.0069     525.5787
   1426.05774     637.4603     527.9446   1426.05774     637.4603     527.9446
   1426.04248     640.6736     530.2587   1426.04248     640.6736     530.2587
   1426.02722     642.0187     532.0519   1426.02722     642.0187     532.0519
   1426.01196     645.4395     534.4266   1426.01196     645.4395     534.4266
   1425.99670     647.6164     537.9071   1425.99670     647.6164     537.9071
   1425.98145     649.6844     538.4131   1425.98145     649.6844     538.4131
   1425.96619     651.7777     541.1008   1425.96619     651.7777     541.1008
   1425.95093     654.6403     544.2269   1425.95093     654.6403     544.2269
   1425.93567     656.8829     545.6239   1425.93567     656.8829     545.6239
   1425.92041     659.1767     546.6951   1425.92041     659.1767     546.6951
   1425.90515     661.4456     549.6301   1425.90515     661.4456     549.6301
   1425.88989     663.7679     550.8442   1425.88989     663.7679     550.8442
   1425.87463     664.8043     553.2778   1425.87463     664.8043     553.2778
   1425.85938     666.8384     555.9659   1425.85938     666.8384     555.9659
   1425.84412     670.1461     557.3047   1425.84412     670.1461     557.3047
   1425.82886     671.5478     559.6954   1425.82886     671.5478     559.6954
   1425.81360     674.4916     562.1142   1425.81360     674.4916     562.1142
   1425.79834     676.4465     563.8787   1425.79834     676.4465     563.8787
   1425.78308     676.6664     564.9322   1425.78308     676.6664     564.9322
   1425.76782     679.9058     567.3925   1425.76782     679.9058     567.3925
   1425.75256     680.5772     568.9524   1425.75256     680.5772     568.9524
   1425.73730     683.0888     571.3881   1425.73730     683.0888     571.3881
   1425.72205     685.3068     571.4801   1425.72205     685.3068     571.4801
   1425.70679     687.6506     574.5597   1425.70679     687.6506     574.5597
   1425.69153     687.7792     575.9291   1425.69153     687.7792     575.9291
   1425.67627     689.9441     577.9281   1425.67627     689.9441     577.9281
   1425.66101     693.1961     580.2635   1425.66101     693.1961     580.2635
   1425.64575     694.3469     582.0053   1425.64575     694.3469     582.0053
   1425.63049     694.5938     583.4207   1425.63049     694.5938     583.4207
   1425.61523     697.7544     584.1064   1425.61523     697.7544     584.1064
   1425.59998     698.8616     586.6625   1425.59998     698.8616     586.6625
   1425.58472     701.4672     588.1885   1425.58472     701.4672     588.1885
   1425.56946     701.6152     589.0039   1425.56946     701.6152     589.0039
   1425.55420     703.7421     590.6581   1425.55420     703.7421     590.6581
   1425.53894     705.4779     592.4746   1425.53894     705.4779     592.4746
   1425.52368     706.1523     593.4966   1425.52368     706.1523     593.4966
   1425.50842     707.1601     593.9636   1425.50842     707.1601     593.9636
   1425.49316     708.0193     595.5229   1425.49316     708.0193     595.5229
   1425.47791     709.7018     597.4717   1425.47791     709.7018     597.4717
   1425.46265     711.7838     599.2037   1425.46265     711.7838     599.2037
   1425.44739     712.9777     600.8240   1425.44739     712.9777     600.8240
   1425.43213     713.8105     601.0432   1425.43213     713.8105     601.0432
   1425.41687     716.1620     604.6536   1425.41687     716.1620     604.6536
   1425.40161     716.6883     604.3353   1425.40161     716.6883     604.3353
   1425.38635     717.1833     605.5939   1425.38635     717.1833     605.5939
   1425.37109     718.9296     606.5058   1425.37109     718.9296     606.5058
   1425.35583     719.1816     607.7494   1425.35583     719.1816     607.7494
   1425.34058     719.7772     608.1053   1425.34058     719.7772     608.1053
   1425.32532     721.0080     609.7574   1425.32532     721.0080     609.7574
   1425.31006     722.9311     611.2891   1425.31006     722.9311     611.2891
   1425.29480     724.4294     612.5039   1425.29480     724.4294     612.5039
   1425.27954     724.2828     613.6206   1425.27954     724.2828     613.6206
   1425.26428     725.4114     614.1624   1425.26428     725.4114     614.1624
   1425.24902     726.1542     615.3648   1425.24902     726.1542     615.3648
   1425.23376     726.6797     615.8563   1425.23376     726.6797     615.8563
   1425.21851     726.6158     617.9802   1425.21851     726.6158     617.9802
   1425.20325     728.6167     619.6765   1425.20325     728.6167     619.6765
   1425.18799     730.2469     619.2920   1425.18799     730.2469     619.2920
   1425.17273     730.4421     620.1914   1425.17273     730.4421     620.1914
   1425.15747     730.5611     621.2668   1425.15747     730.5611     621.2668
   1425.14221     731.3708     621.3304   1425.14221     731.3708     621.3304
   1425.12695     733.6512     623.5966   1425.12695     733.6512     623.5966
   1425.11169     732.6049     623.0020   1425.11169     732.6049     623.0020
   1425.09644     734.9402     624.4807   1425.09644     734.9402     624.4807
   1425.08118     734.7905     626.1838   1425.08118     734.7905     626.1838
   1425.06592     735.3097     626.1319   1425.06592     735.3097     626.1319
   1425.05066     735.3311     626.0908   1425.05066     735.3311     626.0908
   1425.03540     735.4888     627.1094   1425.03540     735.4888     627.1094
   1425.02014     735.9471     627.6364   1425.02014     735.9471     627.6364
   1425.00488     737.4787     629.7540   1425.00488     737.4787     629.7540
   1424.98962     737.9107     628.9698   1424.98962     737.9107     628.9698
   1424.97437     738.4340     629.9872   1424.97437     738.4340     629.9872
   1424.95911     738.0107     630.7758   1424.95911     738.0107     630.7758
   1424.94385     738.5750     631.2353   1424.94385     738.5750     631.2353
   1424.92859     737.7840     631.8599   1424.92859     737.7840     631.8599
   1424.91333     739.5071     632.7451   1424.91333     739.5071     632.7451
   1424.89807     740.6569     632.6800   1424.89807     740.6569     632.6800
   1424.88281     740.4247     633.5521   1424.88281     740.4247     633.5521
   1424.86755     739.6805     633.2155   1424.86755     739.6805     633.2155
   1424.85229     739.9590     634.4000   1424.85229     739.9590     634.4000
   1424.83704     740.4962     634.3918   1424.83704     740.4962     634.3918
   1424.82178     741.7798     634.8744   1424.82178     741.7798     634.8744
   1424.80652     739.8458     634.6406   1424.80652     739.8458     634.6406
   1424.79126     740.6617     635.9711   1424.79126     740.6617     635.9711
   1424.77600     742.3550     636.6425   1424.77600     742.3550     636.6425
   1424.76074     741.3784     636.6978   1424.76074     741.3784     636.6978
   1424.74548     741.2280     636.5084   1424.74548     741.2280     636.5084
   1424.73022     742.4583     635.9375   1424.73022     742.4583     635.9375
   1424.71497     741.1630     637.7489   1424.71497     741.1630     637.7489
   1424.69971     742.7760     636.7704   1424.69971     742.7760     636.7704
   1424.68445     743.3170     637.3823   1424.68445     743.3170     637.3823
   1424.66919     741.9846     637.3350   1424.66919     741.9846     637.3350
   1424.65393     741.2994     637.5679   1424.65393     741.2994     637.5679
   1424.63867     741.6951     638.2430   1424.63867     741.6951     638.2430
   1424.62341     741.8220     637.7719   1424.62341     741.8220     637.7719
   1424.60815     741.8743     637.1755   1424.60815     741.8743     637.1755
   1424.59290     741.5530     637.8059   1424.59290     741.5530     637.8059
   1424.57764     742.4727     637.9560   1424.57764     742.4727     637.9560
   1424.56238     742.4449     638.5303   1424.56238     742.4449     638.5303
   1424.54712     741.5817     638.6297   1424.54712     741.5817     638.6297
   1424.53186     741.6160     638.5143   1424.53186     741.6160     638.5143
   1424.51660     741.1750     636.6520   1424.51660     741.1750     636.6520
   1424.50134     742.0133     637.4981   1424.50134     742.0133     637.4981
   1424.48608     741.2634     637.9707   1424.48608     741.2634     637.9707
   1424.47083     740.4343     637.3894   1424.47083     740.4343     637.3894
   1424.45557     740.4963     636.1317   1424.45557     740.4963     636.1317
   1424.44031     741.4012     638.7304   1424.44031     741.4012     638.7304
   1424.42505     740.4243     637.2413   1424.42505     740.4243     637.2413
   1424.40979     739.1763     637.2078   1424.40979     739.1763     637.2078
   1424.39453     740.1966     637.6608   1424.39453     740.1966     637.6608
   1424.37927     740.7313     636.9626   1424.37927     740.7313     636.9626
   1424.36401     739.3433     636.5996   1424.36401     739.3433     636.5996
   1424.34875     740.9741     637.6343   1424.34875     740.9741     637.6343
   1424.33350     739.3708     637.0444   1424.33350     739.3708     637.0444
   1424.31824     739.1288     635.7341   1424.31824     739.1288     635.7341
   1424.30298     738.5114     635.6366   1424.30298     738.5114     635.6366
   1424.28772     738.4253     635.7520   1424.28772     738.4253     635.7520
   1424.27246     737.4571     634.9440   1424.27246     737.4571     634.9440
   1424.25720     737.2816     636.4361   1424.25720     737.2816     636.4361
   1424.24194     737.4818     634.5778   1424.24194     737.4818     634.5778
   1424.22668     736.9195     635.0317   1424.22668     736.9195     635.0317
   1424.21143     737.3272     633.4569   1424.21143     737.3272     633.4569
   1424.19617     737.5032     635.0675   1424.19617     737.5032     635.0675
   1424.18091     736.4297     633.3785   1424.18091     736.4297     633.3785
   1424.16565     736.4282     632.9477   1424.16565     736.4282     632.9477
