#     FILENAME=!Skynet_57528_lach-hhg-137_20453_20961.cyb.fits
#     BASENAME=Skynet_57528_lach-hhg-137_20453_20961
#     SRC_NAME=lach-hhg-137
#     OBSERVER=hhgmadison16_9500
#     DATE_OBS=2016-05-20T17:11:32.000
#        OBSID=20453
#      SCANNUM=20961
#          MJD=57528.7174
#          UTC=61980
#     SCANTYPE=track
#     DATAMODE=HIRES
#     TUNEFREQ=1420.0000
# Actual_FREQ1=1420.0000
# Actual_FREQ2=1420.0000
#    LO1Tuning=6870.000
#     RFFILTER=1355_1435
#        OBSBW=-15.6250
#        NCHAN=1024 
#        FOCUS=37.1368
#           RA=02:46:34.81
#          DEC=59:41:17.03
#      RA(hrs)=2.776300
#     DEC(deg)=59.688100
#    AZIM(deg)=340.407
#    ELEV(deg)=66.591
#     IFattens=11.00, 10.00
#      WARNING=None
#    TCAL_XL1=7.9635
#    TCAL_YR1=9.1340
#    TCAL_XL2=7.9635
#    TCAL_YR2=9.1340
#     TRX_XL1=11.7060
#     TRX_YR1=11.7060
#     TRX_XL2=11.7060
#     TRX_YR2=11.7060
#        TAVE=1.0000
#Freq1(MHz)          XL1          YR1  Freq2(MHz)          XL2          YR2 

   1427.81250     303.0825     247.0005   1427.81250     303.0825     247.0005
   1427.79724     303.1259     247.6204   1427.79724     303.1259     247.6204
   1427.78198     303.9594     248.4067   1427.78198     303.9594     248.4067
   1427.76672     304.7161     249.9092   1427.76672     304.7161     249.9092
   1427.75146     305.0181     250.4569   1427.75146     305.0181     250.4569
   1427.73621     306.3859     251.4412   1427.73621     306.3859     251.4412
   1427.72095     306.5256     252.6120   1427.72095     306.5256     252.6120
   1427.70569     307.6915     253.5792   1427.70569     307.6915     253.5792
   1427.69043     308.5899     254.6514   1427.69043     308.5899     254.6514
   1427.67517     309.2129     256.2892   1427.67517     309.2129     256.2892
   1427.65991     310.3590     257.5029   1427.65991     310.3590     257.5029
   1427.64465     311.1390     259.0049   1427.64465     311.1390     259.0049
   1427.62939     312.1296     260.2409   1427.62939     312.1296     260.2409
   1427.61414     313.2593     261.9082   1427.61414     313.2593     261.9082
   1427.59888     314.3477     262.9784   1427.59888     314.3477     262.9784
   1427.58362     315.3584     264.2161   1427.58362     315.3584     264.2161
   1427.56836     316.7286     265.3034   1427.56836     316.7286     265.3034
   1427.55310     318.0454     267.3763   1427.55310     318.0454     267.3763
   1427.53784     318.9683     268.7363   1427.53784     318.9683     268.7363
   1427.52258     320.3266     269.7952   1427.52258     320.3266     269.7952
   1427.50732     321.9634     271.4016   1427.50732     321.9634     271.4016
   1427.49207     323.1309     273.2271   1427.49207     323.1309     273.2271
   1427.47681     324.2478     275.0237   1427.47681     324.2478     275.0237
   1427.46155     326.6467     276.5304   1427.46155     326.6467     276.5304
   1427.44629     327.4943     278.0858   1427.44629     327.4943     278.0858
   1427.43103     329.1688     279.8414   1427.43103     329.1688     279.8414
   1427.41577     330.6825     281.2267   1427.41577     330.6825     281.2267
   1427.40051     331.9066     283.0149   1427.40051     331.9066     283.0149
   1427.38525     333.8678     284.9213   1427.38525     333.8678     284.9213
   1427.37000     335.8987     286.5184   1427.37000     335.8987     286.5184
   1427.35474     337.6679     288.6884   1427.35474     337.6679     288.6884
   1427.33948     338.7188     290.1019   1427.33948     338.7188     290.1019
   1427.32422     340.2894     292.2173   1427.32422     340.2894     292.2173
   1427.30896     342.7378     294.1267   1427.30896     342.7378     294.1267
   1427.29370     344.9471     295.5945   1427.29370     344.9471     295.5945
   1427.27844     347.1739     297.9931   1427.27844     347.1739     297.9931
   1427.26318     347.9567     299.9223   1427.26318     347.9567     299.9223
   1427.24792     350.1489     301.4423   1427.24792     350.1489     301.4423
   1427.23267     352.4158     303.0302   1427.23267     352.4158     303.0302
   1427.21741     353.9982     305.1814   1427.21741     353.9982     305.1814
   1427.20215     356.5632     307.3015   1427.20215     356.5632     307.3015
   1427.18689     358.2988     309.4703   1427.18689     358.2988     309.4703
   1427.17163     359.9662     310.7821   1427.17163     359.9662     310.7821
   1427.15637     362.4042     313.3713   1427.15637     362.4042     313.3713
   1427.14111     365.0417     315.9676   1427.14111     365.0417     315.9676
   1427.12585     366.4799     317.0098   1427.12585     366.4799     317.0098
   1427.11060     368.9263     319.5086   1427.11060     368.9263     319.5086
   1427.09534     371.2419     321.8543   1427.09534     371.2419     321.8543
   1427.08008     373.3354     322.7313   1427.08008     373.3354     322.7313
   1427.06482     375.8346     325.2610   1427.06482     375.8346     325.2610
   1427.04956     377.1560     327.4220   1427.04956     377.1560     327.4220
   1427.03430     380.8405     329.7871   1427.03430     380.8405     329.7871
   1427.01904     382.1063     331.3172   1427.01904     382.1063     331.3172
   1427.00378     385.0871     333.4967   1427.00378     385.0871     333.4967
   1426.98853     388.2180     335.3492   1426.98853     388.2180     335.3492
   1426.97327     389.8182     338.0923   1426.97327     389.8182     338.0923
   1426.95801     392.0247     340.0735   1426.95801     392.0247     340.0735
   1426.94275     394.8102     342.1024   1426.94275     394.8102     342.1024
   1426.92749     397.1661     344.4758   1426.92749     397.1661     344.4758
   1426.91223     399.8381     346.5439   1426.91223     399.8381     346.5439
   1426.89697     402.6279     349.1341   1426.89697     402.6279     349.1341
   1426.88171     404.5327     350.6227   1426.88171     404.5327     350.6227
   1426.86646     407.1188     352.6205   1426.86646     407.1188     352.6205
   1426.85120     409.5552     355.1573   1426.85120     409.5552     355.1573
   1426.83594     412.8152     356.7697   1426.83594     412.8152     356.7697
   1426.82068     414.7812     358.5742   1426.82068     414.7812     358.5742
   1426.80542     417.4073     360.3008   1426.80542     417.4073     360.3008
   1426.79016     420.1857     362.7211   1426.79016     420.1857     362.7211
   1426.77490     422.0552     364.9605   1426.77490     422.0552     364.9605
   1426.75964     424.7053     367.1455   1426.75964     424.7053     367.1455
   1426.74438     427.6556     369.6073   1426.74438     427.6556     369.6073
   1426.72913     430.3152     370.6896   1426.72913     430.3152     370.6896
   1426.71387     432.9789     373.3132   1426.71387     432.9789     373.3132
   1426.69861     435.2578     375.6718   1426.69861     435.2578     375.6718
   1426.68335     437.7835     377.0541   1426.68335     437.7835     377.0541
   1426.66809     439.6471     379.5596   1426.66809     439.6471     379.5596
   1426.65283     442.8978     381.3036   1426.65283     442.8978     381.3036
   1426.63757     445.0513     383.2096   1426.63757     445.0513     383.2096
   1426.62231     448.4439     386.0445   1426.62231     448.4439     386.0445
   1426.60706     449.7220     387.5117   1426.60706     449.7220     387.5117
   1426.59180     452.9066     388.9210   1426.59180     452.9066     388.9210
   1426.57654     455.9002     391.2189   1426.57654     455.9002     391.2189
   1426.56128     459.1991     393.2371   1426.56128     459.1991     393.2371
   1426.54602     461.0586     394.5254   1426.54602     461.0586     394.5254
   1426.53076     463.4863     396.9539   1426.53076     463.4863     396.9539
   1426.51550     465.5314     399.6070   1426.51550     465.5314     399.6070
   1426.50024     468.8266     400.4128   1426.50024     468.8266     400.4128
   1426.48499     470.9947     403.2655   1426.48499     470.9947     403.2655
   1426.46973     474.6391     404.2246   1426.46973     474.6391     404.2246
   1426.45447     476.5394     405.5495   1426.45447     476.5394     405.5495
   1426.43921     478.8887     407.4557   1426.43921     478.8887     407.4557
   1426.42395     480.4771     409.2062   1426.42395     480.4771     409.2062
   1426.40869     483.7307     411.7078   1426.40869     483.7307     411.7078
   1426.39343     486.3013     413.1617   1426.39343     486.3013     413.1617
   1426.37817     489.1948     415.0121   1426.37817     489.1948     415.0121
   1426.36292     491.0288     417.0563   1426.36292     491.0288     417.0563
   1426.34766     493.7464     418.4348   1426.34766     493.7464     418.4348
   1426.33240     496.0166     420.0099   1426.33240     496.0166     420.0099
   1426.31714     498.5475     421.9715   1426.31714     498.5475     421.9715
   1426.30188     500.8546     423.7752   1426.30188     500.8546     423.7752
   1426.28662     503.5374     425.0282   1426.28662     503.5374     425.0282
   1426.27136     504.8512     427.4203   1426.27136     504.8512     427.4203
   1426.25610     508.3555     428.4598   1426.25610     508.3555     428.4598
   1426.24084     510.1063     429.8200   1426.24084     510.1063     429.8200
   1426.22559     513.5765     431.4132   1426.22559     513.5765     431.4132
   1426.21033     514.7462     433.6323   1426.21033     514.7462     433.6323
   1426.19507     517.8350     434.8438   1426.19507     517.8350     434.8438
   1426.17981     521.2475     436.4001   1426.17981     521.2475     436.4001
   1426.16455     522.5689     436.9955   1426.16455     522.5689     436.9955
   1426.14929     524.9976     439.5692   1426.14929     524.9976     439.5692
   1426.13403     526.1031     441.0031   1426.13403     526.1031     441.0031
   1426.11877     528.9589     442.2047   1426.11877     528.9589     442.2047
   1426.10352     531.9682     443.7237   1426.10352     531.9682     443.7237
   1426.08826     533.6573     445.3536   1426.08826     533.6573     445.3536
   1426.07300     535.5377     446.4091   1426.07300     535.5377     446.4091
   1426.05774     537.8934     447.7668   1426.05774     537.8934     447.7668
   1426.04248     540.1936     449.7467   1426.04248     540.1936     449.7467
   1426.02722     541.3763     450.0838   1426.02722     541.3763     450.0838
   1426.01196     543.8345     452.0232   1426.01196     543.8345     452.0232
   1425.99670     545.8256     453.1364   1425.99670     545.8256     453.1364
   1425.98145     547.8827     455.0130   1425.98145     547.8827     455.0130
   1425.96619     549.9694     455.9072   1425.96619     549.9694     455.9072
   1425.95093     552.0273     456.6510   1425.95093     552.0273     456.6510
   1425.93567     553.5336     457.9902   1425.93567     553.5336     457.9902
   1425.92041     555.6217     459.2123   1425.92041     555.6217     459.2123
   1425.90515     557.8107     460.2661   1425.90515     557.8107     460.2661
   1425.88989     560.0464     461.8224   1425.88989     560.0464     461.8224
   1425.87463     561.4271     462.4903   1425.87463     561.4271     462.4903
   1425.85938     562.7824     463.8409   1425.85938     562.7824     463.8409
   1425.84412     564.6581     464.6984   1425.84412     564.6581     464.6984
   1425.82886     566.4869     466.4838   1425.82886     566.4869     466.4838
   1425.81360     568.8869     467.4079   1425.81360     568.8869     467.4079
   1425.79834     571.2526     468.4260   1425.79834     571.2526     468.4260
   1425.78308     571.6312     469.9017   1425.78308     571.6312     469.9017
   1425.76782     573.6728     470.6671   1425.76782     573.6728     470.6671
   1425.75256     574.9918     471.1479   1425.75256     574.9918     471.1479
   1425.73730     576.6278     472.9977   1425.73730     576.6278     472.9977
   1425.72205     578.2480     473.9790   1425.72205     578.2480     473.9790
   1425.70679     579.1845     474.5079   1425.70679     579.1845     474.5079
   1425.69153     581.9693     475.9155   1425.69153     581.9693     475.9155
   1425.67627     582.6443     476.1788   1425.67627     582.6443     476.1788
   1425.66101     583.6116     477.1576   1425.66101     583.6116     477.1576
   1425.64575     585.6661     477.5405   1425.64575     585.6661     477.5405
   1425.63049     587.4604     479.7484   1425.63049     587.4604     479.7484
   1425.61523     588.8069     480.6210   1425.61523     588.8069     480.6210
   1425.59998     590.0333     480.7469   1425.59998     590.0333     480.7469
   1425.58472     591.8503     480.8619   1425.58472     591.8503     480.8619
   1425.56946     592.6959     482.0009   1425.56946     592.6959     482.0009
   1425.55420     593.9913     483.0957   1425.55420     593.9913     483.0957
   1425.53894     595.4384     483.8742   1425.53894     595.4384     483.8742
   1425.52368     596.2040     484.9688   1425.52368     596.2040     484.9688
   1425.50842     597.0408     485.5624   1425.50842     597.0408     485.5624
   1425.49316     599.0838     485.8867   1425.49316     599.0838     485.8867
   1425.47791     599.9290     487.5854   1425.47791     599.9290     487.5854
   1425.46265     600.7847     486.6401   1425.46265     600.7847     486.6401
   1425.44739     601.6699     489.0063   1425.44739     601.6699     489.0063
   1425.43213     603.1400     489.3120   1425.43213     603.1400     489.3120
   1425.41687     605.6544     489.8954   1425.41687     605.6544     489.8954
   1425.40161     605.2734     490.5641   1425.40161     605.2734     490.5641
   1425.38635     605.5486     491.0147   1425.38635     605.5486     491.0147
   1425.37109     607.0095     491.2090   1425.37109     607.0095     491.2090
   1425.35583     608.4379     491.5609   1425.35583     608.4379     491.5609
   1425.34058     608.6790     492.7298   1425.34058     608.6790     492.7298
   1425.32532     610.4890     493.1879   1425.32532     610.4890     493.1879
   1425.31006     611.2137     494.7298   1425.31006     611.2137     494.7298
   1425.29480     611.7712     494.5989   1425.29480     611.7712     494.5989
   1425.27954     612.5148     494.7283   1425.27954     612.5148     494.7283
   1425.26428     612.4385     495.1533   1425.26428     612.4385     495.1533
   1425.24902     612.6506     496.7664   1425.24902     612.6506     496.7664
   1425.23376     614.8056     496.6712   1425.23376     614.8056     496.6712
   1425.21851     615.9482     496.7350   1425.21851     615.9482     496.7350
   1425.20325     616.7236     498.4450   1425.20325     616.7236     498.4450
   1425.18799     616.6490     498.6248   1425.18799     616.6490     498.6248
   1425.17273     616.3058     498.4617   1425.17273     616.3058     498.4617
   1425.15747     617.7394     499.2111   1425.15747     617.7394     499.2111
   1425.14221     618.1218     499.6897   1425.14221     618.1218     499.6897
   1425.12695     619.4601     501.0014   1425.12695     619.4601     501.0014
   1425.11169     618.9426     500.6809   1425.11169     618.9426     500.6809
   1425.09644     620.0244     501.0356   1425.09644     620.0244     501.0356
   1425.08118     620.8536     501.3004   1425.08118     620.8536     501.3004
   1425.06592     621.3088     502.4401   1425.06592     621.3088     502.4401
   1425.05066     621.6829     503.2692   1425.05066     621.6829     503.2692
   1425.03540     622.9100     502.4919   1425.03540     622.9100     502.4919
   1425.02014     623.1439     503.0436   1425.02014     623.1439     503.0436
   1425.00488     622.1864     503.7243   1425.00488     622.1864     503.7243
   1424.98962     624.8701     504.6921   1424.98962     624.8701     504.6921
   1424.97437     623.2511     504.0727   1424.97437     623.2511     504.0727
   1424.95911     623.6483     504.5499   1424.95911     623.6483     504.5499
   1424.94385     623.9970     504.6761   1424.94385     623.9970     504.6761
   1424.92859     624.0603     504.0342   1424.92859     624.0603     504.0342
   1424.91333     624.3494     505.4622   1424.91333     624.3494     505.4622
   1424.89807     625.3982     505.9841   1424.89807     625.3982     505.9841
   1424.88281     625.2115     505.6290   1424.88281     625.2115     505.6290
   1424.86755     624.0106     505.6250   1424.86755     624.0106     505.6250
   1424.85229     624.7255     505.8579   1424.85229     624.7255     505.8579
   1424.83704     625.6805     506.7703   1424.83704     625.6805     506.7703
   1424.82178     624.7822     506.3894   1424.82178     624.7822     506.3894
   1424.80652     626.9693     506.5374   1424.80652     626.9693     506.5374
   1424.79126     626.4048     506.4930   1424.79126     626.4048     506.4930
   1424.77600     625.5759     506.4160   1424.77600     625.5759     506.4160
   1424.76074     625.3183     506.8087   1424.76074     625.3183     506.8087
   1424.74548     626.0201     508.0057   1424.74548     626.0201     508.0057
   1424.73022     625.4214     508.0320   1424.73022     625.4214     508.0320
   1424.71497     625.8373     508.5700   1424.71497     625.8373     508.5700
   1424.69971     626.7088     508.3376   1424.69971     626.7088     508.3376
   1424.68445     625.8729     508.2881   1424.68445     625.8729     508.2881
   1424.66919     626.4286     509.0590   1424.66919     626.4286     509.0590
   1424.65393     625.7722     508.2888   1424.65393     625.7722     508.2888
   1424.63867     626.2154     510.0235   1424.63867     626.2154     510.0235
   1424.62341     626.0078     509.9487   1424.62341     626.0078     509.9487
   1424.60815     625.8126     509.6527   1424.60815     625.8126     509.6527
   1424.59290     626.0171     509.5691   1424.59290     626.0171     509.5691
   1424.57764     626.0851     509.9478   1424.57764     626.0851     509.9478
   1424.56238     625.1154     510.4673   1424.56238     625.1154     510.4673
   1424.54712     624.7479     509.2975   1424.54712     624.7479     509.2975
   1424.53186     624.9687     509.4900   1424.53186     624.9687     509.4900
   1424.51660     624.8454     510.4927   1424.51660     624.8454     510.4927
   1424.50134     625.0118     510.5371   1424.50134     625.0118     510.5371
   1424.48608     625.2684     509.4728   1424.48608     625.2684     509.4728
   1424.47083     624.3869     510.8043   1424.47083     624.3869     510.8043
   1424.45557     623.8743     510.6552   1424.45557     623.8743     510.6552
   1424.44031     624.6760     510.5566   1424.44031     624.6760     510.5566
   1424.42505     624.4041     511.1154   1424.42505     624.4041     511.1154
   1424.40979     624.4588     510.2738   1424.40979     624.4588     510.2738
   1424.39453     623.2645     510.6718   1424.39453     623.2645     510.6718
   1424.37927     622.3151     511.2119   1424.37927     622.3151     511.2119
   1424.36401     623.4912     510.4859   1424.36401     623.4912     510.4859
   1424.34875     622.5834     511.3697   1424.34875     622.5834     511.3697
   1424.33350     622.9335     510.9423   1424.33350     622.9335     510.9423
   1424.31824     622.5986     511.8480   1424.31824     622.5986     511.8480
   1424.30298     621.7803     511.7957   1424.30298     621.7803     511.7957
   1424.28772     620.6660     511.1612   1424.28772     620.6660     511.1612
   1424.27246     620.9721     510.5507   1424.27246     620.9721     510.5507
   1424.25720     620.5120     511.5499   1424.25720     620.5120     511.5499
   1424.24194     621.1205     510.7505   1424.24194     621.1205     510.7505
   1424.22668     620.2351     511.5411   1424.22668     620.2351     511.5411
   1424.21143     619.6639     511.9546   1424.21143     619.6639     511.9546
   1424.19617     619.2012     511.0005   1424.19617     619.2012     511.0005
   1424.18091     618.7504     511.9078   1424.18091     618.7504     511.9078
   1424.16565     618.2065     512.2883   1424.16565     618.2065     512.2883
