#     FILENAME=!Skynet_57528_lach-cc-222_20636_21036.cyb.fits
#     BASENAME=Skynet_57528_lach-cc-222_20636_21036
#     SRC_NAME=lach-cc-222
#     OBSERVER=ccmadison16_9505
#     DATE_OBS=2016-05-20T19:48:17.870
#        OBSID=20636
#      SCANNUM=21036
#          MJD=57528.8263
#          UTC=71387
#     SCANTYPE=track
#     DATAMODE=HIRES
#     TUNEFREQ=1420.0000
# Actual_FREQ1=1420.0000
# Actual_FREQ2=1420.0000
#    LO1Tuning=6870.000
#     RFFILTER=1355_1435
#        OBSBW=-15.6250
#        NCHAN=1024 
#        FOCUS=37.0709
#           RA=07:08:04.78
#          DEC=-08:03:48.95
#      RA(hrs)=7.134700
#     DEC(deg)=-8.063600
#    AZIM(deg)=164.558
#    ELEV(deg)=42.187
#     IFattens=10.00, 9.00
#      WARNING=None
#    TCAL_XL1=7.9635
#    TCAL_YR1=9.1340
#    TCAL_XL2=7.9635
#    TCAL_YR2=9.1340
#     TRX_XL1=11.7060
#     TRX_YR1=11.7060
#     TRX_XL2=11.7060
#     TRX_YR2=11.7060
#        TAVE=1.0000
#Freq1(MHz)          XL1          YR1  Freq2(MHz)          XL2          YR2 

   1427.81250     354.7953     267.6347   1427.81250     354.7953     267.6347
   1427.79724     355.3412     268.3992   1427.79724     355.3412     268.3992
   1427.78198     356.4936     269.2220   1427.78198     356.4936     269.2220
   1427.76672     356.4731     269.9125   1427.76672     356.4731     269.9125
   1427.75146     357.0905     269.4299   1427.75146     357.0905     269.4299
   1427.73621     357.9222     270.5617   1427.73621     357.9222     270.5617
   1427.72095     358.7892     271.0355   1427.72095     358.7892     271.0355
   1427.70569     360.6913     271.9986   1427.70569     360.6913     271.9986
   1427.69043     360.7715     272.0997   1427.69043     360.7715     272.0997
   1427.67517     361.9092     273.6080   1427.67517     361.9092     273.6080
   1427.65991     363.2693     274.2475   1427.65991     363.2693     274.2475
   1427.64465     364.6446     274.9514   1427.64465     364.6446     274.9514
   1427.62939     365.7314     275.8762   1427.62939     365.7314     275.8762
   1427.61414     366.8051     276.5511   1427.61414     366.8051     276.5511
   1427.59888     368.2527     277.9279   1427.59888     368.2527     277.9279
   1427.58362     369.4339     279.1580   1427.58362     369.4339     279.1580
   1427.56836     370.9168     279.7730   1427.56836     370.9168     279.7730
   1427.55310     372.6254     280.9908   1427.55310     372.6254     280.9908
   1427.53784     374.1937     281.7753   1427.53784     374.1937     281.7753
   1427.52258     375.4985     283.1772   1427.52258     375.4985     283.1772
   1427.50732     376.4402     284.4532   1427.50732     376.4402     284.4532
   1427.49207     379.0434     285.6630   1427.49207     379.0434     285.6630
   1427.47681     380.7600     286.8398   1427.47681     380.7600     286.8398
   1427.46155     382.0636     288.2758   1427.46155     382.0636     288.2758
   1427.44629     383.7004     289.2977   1427.44629     383.7004     289.2977
   1427.43103     385.4622     290.5098   1427.43103     385.4622     290.5098
   1427.41577     387.1626     292.2413   1427.41577     387.1626     292.2413
   1427.40051     389.1989     293.9280   1427.40051     389.1989     293.9280
   1427.38525     390.8548     294.5844   1427.38525     390.8548     294.5844
   1427.37000     392.6602     296.0404   1427.37000     392.6602     296.0404
   1427.35474     395.6614     297.9982   1427.35474     395.6614     297.9982
   1427.33948     396.6191     299.6545   1427.33948     396.6191     299.6545
   1427.32422     398.7371     300.9629   1427.32422     398.7371     300.9629
   1427.30896     401.1499     302.7278   1427.30896     401.1499     302.7278
   1427.29370     403.1286     304.4217   1427.29370     403.1286     304.4217
   1427.27844     405.2383     306.0435   1427.27844     405.2383     306.0435
   1427.26318     407.5030     307.6075   1427.26318     407.5030     307.6075
   1427.24792     409.8765     309.7209   1427.24792     409.8765     309.7209
   1427.23267     412.3260     310.8549   1427.23267     412.3260     310.8549
   1427.21741     413.8111     313.3402   1427.21741     413.8111     313.3402
   1427.20215     416.3165     314.5171   1427.20215     416.3165     314.5171
   1427.18689     419.6087     316.9730   1427.18689     419.6087     316.9730
   1427.17163     421.3944     318.8757   1427.17163     421.3944     318.8757
   1427.15637     423.6338     321.1229   1427.15637     423.6338     321.1229
   1427.14111     425.5070     322.5252   1427.14111     425.5070     322.5252
   1427.12585     428.2734     324.2107   1427.12585     428.2734     324.2107
   1427.11060     431.6541     326.8806   1427.11060     431.6541     326.8806
   1427.09534     433.8537     328.2558   1427.09534     433.8537     328.2558
   1427.08008     436.0118     330.9622   1427.08008     436.0118     330.9622
   1427.06482     439.2313     332.9775   1427.06482     439.2313     332.9775
   1427.04956     440.9950     334.7977   1427.04956     440.9950     334.7977
   1427.03430     443.1112     337.0631   1427.03430     443.1112     337.0631
   1427.01904     446.5697     339.1789   1427.01904     446.5697     339.1789
   1427.00378     448.8026     341.2659   1427.00378     448.8026     341.2659
   1426.98853     450.7050     343.2409   1426.98853     450.7050     343.2409
   1426.97327     454.1886     345.6352   1426.97327     454.1886     345.6352
   1426.95801     457.3076     347.9993   1426.95801     457.3076     347.9993
   1426.94275     459.4941     350.2962   1426.94275     459.4941     350.2962
   1426.92749     462.2923     352.5531   1426.92749     462.2923     352.5531
   1426.91223     464.7709     354.5442   1426.91223     464.7709     354.5442
   1426.89697     467.7565     357.2474   1426.89697     467.7565     357.2474
   1426.88171     470.2035     359.5285   1426.88171     470.2035     359.5285
   1426.86646     473.1812     361.8427   1426.86646     473.1812     361.8427
   1426.85120     475.0186     363.6147   1426.85120     475.0186     363.6147
   1426.83594     478.3201     366.2489   1426.83594     478.3201     366.2489
   1426.82068     481.4214     368.9748   1426.82068     481.4214     368.9748
   1426.80542     483.8863     371.4074   1426.80542     483.8863     371.4074
   1426.79016     486.3725     373.5276   1426.79016     486.3725     373.5276
   1426.77490     489.3663     375.7477   1426.77490     489.3663     375.7477
   1426.75964     491.9419     377.9568   1426.75964     491.9419     377.9568
   1426.74438     494.8366     380.6954   1426.74438     494.8366     380.6954
   1426.72913     497.3034     383.3481   1426.72913     497.3034     383.3481
   1426.71387     500.4345     385.5228   1426.71387     500.4345     385.5228
   1426.69861     502.6579     387.9052   1426.69861     502.6579     387.9052
   1426.68335     506.0705     390.0013   1426.68335     506.0705     390.0013
   1426.66809     507.9869     392.7157   1426.66809     507.9869     392.7157
   1426.65283     510.8745     395.3977   1426.65283     510.8745     395.3977
   1426.63757     514.0161     398.4490   1426.63757     514.0161     398.4490
   1426.62231     519.9152     401.6572   1426.62231     519.9152     401.6572
   1426.60706     520.0728     402.4713   1426.60706     520.0728     402.4713
   1426.59180     521.7606     405.3287   1426.59180     521.7606     405.3287
   1426.57654     525.0029     408.1098   1426.57654     525.0029     408.1098
   1426.56128     528.2059     410.1630   1426.56128     528.2059     410.1630
   1426.54602     529.7679     412.5350   1426.54602     529.7679     412.5350
   1426.53076     533.6348     416.0740   1426.53076     533.6348     416.0740
   1426.51550     536.2610     417.9623   1426.51550     536.2610     417.9623
   1426.50024     539.2956     420.8632   1426.50024     539.2956     420.8632
   1426.48499     542.2213     423.8938   1426.48499     542.2213     423.8938
   1426.46973     543.7928     425.5202   1426.46973     543.7928     425.5202
   1426.45447     546.5886     427.7920   1426.45447     546.5886     427.7920
   1426.43921     549.6179     430.8810   1426.43921     549.6179     430.8810
   1426.42395     552.4547     433.4166   1426.42395     552.4547     433.4166
   1426.40869     554.6161     435.8420   1426.40869     554.6161     435.8420
   1426.39343     558.6351     438.4343   1426.39343     558.6351     438.4343
   1426.37817     560.9366     440.9768   1426.37817     560.9366     440.9768
   1426.36292     562.8552     444.0195   1426.36292     562.8552     444.0195
   1426.34766     565.6985     445.7267   1426.34766     565.6985     445.7267
   1426.33240     566.4523     448.0362   1426.33240     566.4523     448.0362
   1426.31714     570.6776     450.9550   1426.31714     570.6776     450.9550
   1426.30188     572.6545     453.7528   1426.30188     572.6545     453.7528
   1426.28662     574.9526     456.6513   1426.28662     574.9526     456.6513
   1426.27136     577.6028     458.9880   1426.27136     577.6028     458.9880
   1426.25610     579.5021     461.9727   1426.25610     579.5021     461.9727
   1426.24084     582.8775     464.9680   1426.24084     582.8775     464.9680
   1426.22559     585.4407     466.5046   1426.22559     585.4407     466.5046
   1426.21033     588.0269     469.6874   1426.21033     588.0269     469.6874
   1426.19507     590.7004     471.6092   1426.19507     590.7004     471.6092
   1426.17981     592.8229     474.6086   1426.17981     592.8229     474.6086
   1426.16455     594.2847     476.7310   1426.16455     594.2847     476.7310
   1426.14929     596.5038     479.5249   1426.14929     596.5038     479.5249
   1426.13403     600.5966     481.8340   1426.13403     600.5966     481.8340
   1426.11877     601.4149     484.5250   1426.11877     601.4149     484.5250
   1426.10352     603.2292     486.1240   1426.10352     603.2292     486.1240
   1426.08826     606.2877     488.7602   1426.08826     606.2877     488.7602
   1426.07300     608.2792     490.6935   1426.07300     608.2792     490.6935
   1426.05774     610.5636     493.6700   1426.05774     610.5636     493.6700
   1426.04248     612.0516     496.1528   1426.04248     612.0516     496.1528
   1426.02722     614.1591     499.1701   1426.02722     614.1591     499.1701
   1426.01196     617.0134     501.5082   1426.01196     617.0134     501.5082
   1425.99670     618.1650     503.1581   1425.99670     618.1650     503.1581
   1425.98145     620.7776     505.5506   1425.98145     620.7776     505.5506
   1425.96619     622.6191     508.9797   1425.96619     622.6191     508.9797
   1425.95093     624.0648     511.1758   1425.95093     624.0648     511.1758
   1425.93567     627.9144     512.4404   1425.93567     627.9144     512.4404
   1425.92041     629.4665     515.0807   1425.92041     629.4665     515.0807
   1425.90515     630.5949     517.3486   1425.90515     630.5949     517.3486
   1425.88989     633.3314     519.7434   1425.88989     633.3314     519.7434
   1425.87463     635.5243     521.7838   1425.87463     635.5243     521.7838
   1425.85938     636.1552     524.8898   1425.85938     636.1552     524.8898
   1425.84412     638.7236     526.0883   1425.84412     638.7236     526.0883
   1425.82886     640.5076     528.1627   1425.82886     640.5076     528.1627
   1425.81360     642.6245     532.1080   1425.81360     642.6245     532.1080
   1425.79834     643.8949     533.2812   1425.79834     643.8949     533.2812
   1425.78308     644.7985     536.4354   1425.78308     644.7985     536.4354
   1425.76782     647.3285     538.4545   1425.76782     647.3285     538.4545
   1425.75256     649.6943     539.9340   1425.75256     649.6943     539.9340
   1425.73730     650.6129     541.9350   1425.73730     650.6129     541.9350
   1425.72205     653.3130     544.5541   1425.72205     653.3130     544.5541
   1425.70679     655.1489     546.8200   1425.70679     655.1489     546.8200
   1425.69153     655.6262     548.2321   1425.69153     655.6262     548.2321
   1425.67627     656.1791     550.6854   1425.67627     656.1791     550.6854
   1425.66101     658.6385     552.9798   1425.66101     658.6385     552.9798
   1425.64575     659.4301     554.4951   1425.64575     659.4301     554.4951
   1425.63049     660.9861     556.9783   1425.63049     660.9861     556.9783
   1425.61523     663.2241     558.5135   1425.61523     663.2241     558.5135
   1425.59998     664.3317     561.4583   1425.59998     664.3317     561.4583
   1425.58472     665.2881     562.3873   1425.58472     665.2881     562.3873
   1425.56946     666.6302     564.5842   1425.56946     666.6302     564.5842
   1425.55420     668.2070     566.9207   1425.55420     668.2070     566.9207
   1425.53894     669.1920     568.6611   1425.53894     669.1920     568.6611
   1425.52368     670.6492     570.6249   1425.52368     670.6492     570.6249
   1425.50842     671.2875     572.9823   1425.50842     671.2875     572.9823
   1425.49316     672.8574     575.0107   1425.49316     672.8574     575.0107
   1425.47791     674.0865     575.7972   1425.47791     674.0865     575.7972
   1425.46265     676.1533     577.3032   1425.46265     676.1533     577.3032
   1425.44739     677.1146     580.2118   1425.44739     677.1146     580.2118
   1425.43213     678.1481     582.2729   1425.43213     678.1481     582.2729
   1425.41687     679.5034     584.6774   1425.41687     679.5034     584.6774
   1425.40161     680.1079     584.9545   1425.40161     680.1079     584.9545
   1425.38635     681.0183     587.3758   1425.38635     681.0183     587.3758
   1425.37109     681.8343     588.9479   1425.37109     681.8343     588.9479
   1425.35583     682.8672     589.5386   1425.35583     682.8672     589.5386
   1425.34058     682.1688     592.2141   1425.34058     682.1688     592.2141
   1425.32532     685.0593     594.1692   1425.32532     685.0593     594.1692
   1425.31006     685.3781     594.7791   1425.31006     685.3781     594.7791
   1425.29480     686.8560     597.0597   1425.29480     686.8560     597.0597
   1425.27954     687.2914     598.8298   1425.27954     687.2914     598.8298
   1425.26428     687.8716     600.2725   1425.26428     687.8716     600.2725
   1425.24902     689.8350     602.3600   1425.24902     689.8350     602.3600
   1425.23376     689.9720     603.7911   1425.23376     689.9720     603.7911
   1425.21851     691.3386     604.5035   1425.21851     691.3386     604.5035
   1425.20325     691.6675     606.7346   1425.20325     691.6675     606.7346
   1425.18799     692.0002     608.5994   1425.18799     692.0002     608.5994
   1425.17273     691.8196     609.9947   1425.17273     691.8196     609.9947
   1425.15747     693.3691     611.8391   1425.15747     693.3691     611.8391
   1425.14221     694.4095     611.9920   1425.14221     694.4095     611.9920
   1425.12695     694.7885     614.4314   1425.12695     694.7885     614.4314
   1425.11169     695.8698     615.4672   1425.11169     695.8698     615.4672
   1425.09644     695.4269     616.3020   1425.09644     695.4269     616.3020
   1425.08118     696.5616     616.8414   1425.08118     696.5616     616.8414
   1425.06592     697.9946     619.4155   1425.06592     697.9946     619.4155
   1425.05066     698.1923     621.2872   1425.05066     698.1923     621.2872
   1425.03540     697.4772     622.2401   1425.03540     697.4772     622.2401
   1425.02014     698.6973     623.2316   1425.02014     698.6973     623.2316
   1425.00488     697.8674     624.7800   1425.00488     697.8674     624.7800
   1424.98962     700.1808     626.1586   1424.98962     700.1808     626.1586
   1424.97437     699.9550     627.4379   1424.97437     699.9550     627.4379
   1424.95911     700.4707     629.1912   1424.95911     700.4707     629.1912
   1424.94385     700.2664     628.8645   1424.94385     700.2664     628.8645
   1424.92859     701.0161     630.3278   1424.92859     701.0161     630.3278
   1424.91333     701.9727     631.7875   1424.91333     701.9727     631.7875
   1424.89807     702.3297     632.1034   1424.89807     702.3297     632.1034
   1424.88281     702.7000     633.2007   1424.88281     702.7000     633.2007
   1424.86755     702.6390     635.3023   1424.86755     702.6390     635.3023
   1424.85229     703.5844     637.1090   1424.85229     703.5844     637.1090
   1424.83704     703.6599     637.1755   1424.83704     703.6599     637.1755
   1424.82178     703.5039     638.2496   1424.82178     703.5039     638.2496
   1424.80652     703.0632     638.9167   1424.80652     703.0632     638.9167
   1424.79126     703.8876     640.4986   1424.79126     703.8876     640.4986
   1424.77600     703.6791     641.4782   1424.77600     703.6791     641.4782
   1424.76074     703.9062     642.0734   1424.76074     703.9062     642.0734
   1424.74548     704.6349     642.4716   1424.74548     704.6349     642.4716
   1424.73022     703.8875     644.0345   1424.73022     703.8875     644.0345
   1424.71497     704.9319     644.9478   1424.71497     704.9319     644.9478
   1424.69971     705.3284     645.5192   1424.69971     705.3284     645.5192
   1424.68445     706.2389     648.1249   1424.68445     706.2389     648.1249
   1424.66919     705.0574     648.0079   1424.66919     705.0574     648.0079
   1424.65393     706.1926     648.1592   1424.65393     706.1926     648.1592
   1424.63867     706.5043     648.4825   1424.63867     706.5043     648.4825
   1424.62341     705.2169     649.8302   1424.62341     705.2169     649.8302
   1424.60815     706.1492     650.6589   1424.60815     706.1492     650.6589
   1424.59290     705.2241     652.0474   1424.59290     705.2241     652.0474
   1424.57764     707.1340     651.3247   1424.57764     707.1340     651.3247
   1424.56238     706.4771     653.2372   1424.56238     706.4771     653.2372
   1424.54712     707.0850     653.8208   1424.54712     707.0850     653.8208
   1424.53186     705.1360     653.8638   1424.53186     705.1360     653.8638
   1424.51660     706.7177     654.3545   1424.51660     706.7177     654.3545
   1424.50134     706.8267     656.5614   1424.50134     706.8267     656.5614
   1424.48608     705.9365     655.2096   1424.48608     705.9365     655.2096
   1424.47083     707.1157     656.9532   1424.47083     707.1157     656.9532
   1424.45557     705.5881     655.9396   1424.45557     705.5881     655.9396
   1424.44031     706.5312     657.7823   1424.44031     706.5312     657.7823
   1424.42505     706.2193     657.7357   1424.42505     706.2193     657.7357
   1424.40979     707.6516     658.0391   1424.40979     707.6516     658.0391
   1424.39453     706.1715     658.8684   1424.39453     706.1715     658.8684
   1424.37927     706.7610     659.3029   1424.37927     706.7610     659.3029
   1424.36401     705.4077     660.1172   1424.36401     705.4077     660.1172
   1424.34875     706.8735     659.9820   1424.34875     706.8735     659.9820
   1424.33350     705.2085     659.9371   1424.33350     705.2085     659.9371
   1424.31824     705.5972     659.5978   1424.31824     705.5972     659.5978
   1424.30298     704.7587     660.4863   1424.30298     704.7587     660.4863
   1424.28772     705.5036     662.1221   1424.28772     705.5036     662.1221
   1424.27246     705.7948     661.8748   1424.27246     705.7948     661.8748
   1424.25720     705.8995     662.0798   1424.25720     705.8995     662.0798
   1424.24194     705.2823     661.9147   1424.24194     705.2823     661.9147
   1424.22668     705.1906     662.5038   1424.22668     705.1906     662.5038
   1424.21143     704.0381     662.6921   1424.21143     704.0381     662.6921
   1424.19617     705.6155     663.7330   1424.19617     705.6155     663.7330
   1424.18091     704.5747     662.8727   1424.18091     704.5747     662.8727
   1424.16565     703.8091     664.3354   1424.16565     703.8091     664.3354
