#     FILENAME=!Skynet_57528_lach-cc-230_20646_21027.cyb.fits
#     BASENAME=Skynet_57528_lach-cc-230_20646_21027
#     SRC_NAME=lach-cc-230
#     OBSERVER=ccmadison16_9505
#     DATE_OBS=2016-05-20T19:30:04.680
#        OBSID=20646
#      SCANNUM=21027
#          MJD=57528.8136
#          UTC=70294
#     SCANTYPE=track
#     DATAMODE=HIRES
#     TUNEFREQ=1420.0000
# Actual_FREQ1=1420.0000
# Actual_FREQ2=1420.0000
#    LO1Tuning=6870.000
#     RFFILTER=1355_1435
#        OBSBW=-15.6250
#        NCHAN=1024 
#        FOCUS=37.0709
#           RA=07:23:16.46
#          DEC=-15:08:35.79
#      RA(hrs)=7.387900
#     DEC(deg)=-15.143300
#    AZIM(deg)=156.862
#    ELEV(deg)=33.218
#     IFattens=10.00, 9.00
#      WARNING=None
#    TCAL_XL1=7.9635
#    TCAL_YR1=9.1340
#    TCAL_XL2=7.9635
#    TCAL_YR2=9.1340
#     TRX_XL1=11.7060
#     TRX_YR1=11.7060
#     TRX_XL2=11.7060
#     TRX_YR2=11.7060
#        TAVE=1.0000
#Freq1(MHz)          XL1          YR1  Freq2(MHz)          XL2          YR2 

   1427.81250     363.5740     283.7799   1427.81250     363.5740     283.7799
   1427.79724     364.8522     284.5785   1427.79724     364.8522     284.5785
   1427.78198     365.5952     285.0756   1427.78198     365.5952     285.0756
   1427.76672     366.1688     285.0453   1427.76672     366.1688     285.0453
   1427.75146     366.1862     285.8007   1427.75146     366.1862     285.8007
   1427.73621     367.6908     286.6021   1427.73621     367.6908     286.6021
   1427.72095     368.8750     286.9914   1427.72095     368.8750     286.9914
   1427.70569     369.7018     287.7474   1427.70569     369.7018     287.7474
   1427.69043     371.2232     288.7176   1427.69043     371.2232     288.7176
   1427.67517     372.7234     289.4110   1427.67517     372.7234     289.4110
   1427.65991     373.0047     290.1606   1427.65991     373.0047     290.1606
   1427.64465     374.6921     291.3426   1427.64465     374.6921     291.3426
   1427.62939     375.7392     292.2476   1427.62939     375.7392     292.2476
   1427.61414     377.1104     292.9644   1427.61414     377.1104     292.9644
   1427.59888     377.9435     293.9025   1427.59888     377.9435     293.9025
   1427.58362     379.7190     295.2905   1427.58362     379.7190     295.2905
   1427.56836     381.7448     296.1386   1427.56836     381.7448     296.1386
   1427.55310     382.9954     297.3295   1427.55310     382.9954     297.3295
   1427.53784     384.5004     298.7754   1427.53784     384.5004     298.7754
   1427.52258     386.2989     299.7868   1427.52258     386.2989     299.7868
   1427.50732     387.2831     301.0579   1427.50732     387.2831     301.0579
   1427.49207     389.5627     302.2655   1427.49207     389.5627     302.2655
   1427.47681     390.6306     303.8430   1427.47681     390.6306     303.8430
   1427.46155     393.0453     304.7826   1427.46155     393.0453     304.7826
   1427.44629     393.6927     306.4583   1427.44629     393.6927     306.4583
   1427.43103     396.3604     307.5189   1427.43103     396.3604     307.5189
   1427.41577     397.9645     309.1344   1427.41577     397.9645     309.1344
   1427.40051     400.1589     310.7068   1427.40051     400.1589     310.7068
   1427.38525     402.5651     312.2006   1427.38525     402.5651     312.2006
   1427.37000     404.1826     313.8038   1427.37000     404.1826     313.8038
   1427.35474     406.3635     314.9743   1427.35474     406.3635     314.9743
   1427.33948     408.0622     317.1759   1427.33948     408.0622     317.1759
   1427.32422     410.7336     318.2624   1427.32422     410.7336     318.2624
   1427.30896     412.2545     319.7499   1427.30896     412.2545     319.7499
   1427.29370     414.3375     321.7291   1427.29370     414.3375     321.7291
   1427.27844     417.4047     323.4327   1427.27844     417.4047     323.4327
   1427.26318     419.2984     325.5982   1427.26318     419.2984     325.5982
   1427.24792     421.9232     327.0077   1427.24792     421.9232     327.0077
   1427.23267     423.2867     328.4059   1427.23267     423.2867     328.4059
   1427.21741     426.7327     331.1018   1427.21741     426.7327     331.1018
   1427.20215     428.8682     332.8016   1427.20215     428.8682     332.8016
   1427.18689     431.0456     334.1504   1427.18689     431.0456     334.1504
   1427.17163     434.2227     335.9838   1427.17163     434.2227     335.9838
   1427.15637     436.4778     338.2498   1427.15637     436.4778     338.2498
   1427.14111     438.6440     340.3409   1427.14111     438.6440     340.3409
   1427.12585     441.3521     342.9547   1427.12585     441.3521     342.9547
   1427.11060     443.3954     343.9702   1427.11060     443.3954     343.9702
   1427.09534     446.3351     346.4444   1427.09534     446.3351     346.4444
   1427.08008     448.7477     348.8818   1427.08008     448.7477     348.8818
   1427.06482     452.0687     350.6327   1427.06482     452.0687     350.6327
   1427.04956     453.5447     352.3755   1427.04956     453.5447     352.3755
   1427.03430     457.5042     354.9339   1427.03430     457.5042     354.9339
   1427.01904     459.7307     357.0266   1427.01904     459.7307     357.0266
   1427.00378     462.1867     358.6793   1427.00378     462.1867     358.6793
   1426.98853     465.0492     361.5077   1426.98853     465.0492     361.5077
   1426.97327     467.4879     364.1273   1426.97327     467.4879     364.1273
   1426.95801     470.5896     366.0428   1426.95801     470.5896     366.0428
   1426.94275     473.8236     368.1023   1426.94275     473.8236     368.1023
   1426.92749     475.8012     370.4448   1426.92749     475.8012     370.4448
   1426.91223     479.0100     372.8608   1426.91223     479.0100     372.8608
   1426.89697     481.8912     374.6430   1426.89697     481.8912     374.6430
   1426.88171     485.1697     377.0609   1426.88171     485.1697     377.0609
   1426.86646     487.7255     379.6980   1426.86646     487.7255     379.6980
   1426.85120     490.2617     381.8888   1426.85120     490.2617     381.8888
   1426.83594     492.7143     384.1911   1426.83594     492.7143     384.1911
   1426.82068     496.6011     385.9864   1426.82068     496.6011     385.9864
   1426.80542     498.8648     388.8900   1426.80542     498.8648     388.8900
   1426.79016     502.7794     391.5565   1426.79016     502.7794     391.5565
   1426.77490     505.0894     394.1951   1426.77490     505.0894     394.1951
   1426.75964     507.7576     395.6574   1426.75964     507.7576     395.6574
   1426.74438     510.6830     398.4663   1426.74438     510.6830     398.4663
   1426.72913     513.3875     401.7097   1426.72913     513.3875     401.7097
   1426.71387     515.1755     403.3820   1426.71387     515.1755     403.3820
   1426.69861     518.5827     405.2407   1426.69861     518.5827     405.2407
   1426.68335     522.6145     408.3026   1426.68335     522.6145     408.3026
   1426.66809     525.2172     411.3968   1426.66809     525.2172     411.3968
   1426.65283     528.5282     413.4383   1426.65283     528.5282     413.4383
   1426.63757     531.0778     415.5045   1426.63757     531.0778     415.5045
   1426.62231     539.7167     420.8132   1426.62231     539.7167     420.8132
   1426.60706     537.7158     420.4953   1426.60706     537.7158     420.4953
   1426.59180     540.2997     422.9744   1426.59180     540.2997     422.9744
   1426.57654     542.4233     425.3540   1426.57654     542.4233     425.3540
   1426.56128     545.8650     428.2925   1426.56128     545.8650     428.2925
   1426.54602     548.0556     430.3441   1426.54602     548.0556     430.3441
   1426.53076     551.6471     433.2901   1426.53076     551.6471     433.2901
   1426.51550     553.1197     435.3770   1426.51550     553.1197     435.3770
   1426.50024     557.3917     437.4875   1426.50024     557.3917     437.4875
   1426.48499     560.4138     439.5146   1426.48499     560.4138     439.5146
   1426.46973     562.7427     442.8719   1426.46973     562.7427     442.8719
   1426.45447     565.9017     445.9575   1426.45447     565.9017     445.9575
   1426.43921     568.5452     447.7999   1426.43921     568.5452     447.7999
   1426.42395     571.4578     449.8033   1426.42395     571.4578     449.8033
   1426.40869     573.6869     453.1833   1426.40869     573.6869     453.1833
   1426.39343     577.1508     455.5365   1426.39343     577.1508     455.5365
   1426.37817     580.4468     457.3354   1426.37817     580.4468     457.3354
   1426.36292     583.2141     460.2228   1426.36292     583.2141     460.2228
   1426.34766     585.3737     462.5923   1426.34766     585.3737     462.5923
   1426.33240     589.0804     465.1165   1426.33240     589.0804     465.1165
   1426.31714     590.9568     467.1755   1426.31714     590.9568     467.1755
   1426.30188     593.2131     470.3690   1426.30188     593.2131     470.3690
   1426.28662     595.6583     472.4213   1426.28662     595.6583     472.4213
   1426.27136     597.9340     475.0477   1426.27136     597.9340     475.0477
   1426.25610     601.1415     476.9069   1426.25610     601.1415     476.9069
   1426.24084     604.0834     479.6214   1426.24084     604.0834     479.6214
   1426.22559     607.3973     481.9272   1426.22559     607.3973     481.9272
   1426.21033     609.8098     484.5221   1426.21033     609.8098     484.5221
   1426.19507     612.6294     487.2618   1426.19507     612.6294     487.2618
   1426.17981     614.0216     488.7344   1426.17981     614.0216     488.7344
   1426.16455     616.6559     490.8690   1426.16455     616.6559     490.8690
   1426.14929     619.2775     493.7443   1426.14929     619.2775     493.7443
   1426.13403     621.5883     495.8082   1426.13403     621.5883     495.8082
   1426.11877     623.7777     498.4787   1426.11877     623.7777     498.4787
   1426.10352     626.3627     500.9546   1426.10352     626.3627     500.9546
   1426.08826     628.7437     502.9800   1426.08826     628.7437     502.9800
   1426.07300     631.2872     505.0399   1426.07300     631.2872     505.0399
   1426.05774     633.7777     507.2123   1426.05774     633.7777     507.2123
   1426.04248     636.2347     509.8958   1426.04248     636.2347     509.8958
   1426.02722     638.4911     512.5345   1426.02722     638.4911     512.5345
   1426.01196     639.5115     514.7193   1426.01196     639.5115     514.7193
   1425.99670     644.0323     516.7919   1425.99670     644.0323     516.7919
   1425.98145     645.6780     519.0075   1425.98145     645.6780     519.0075
   1425.96619     646.5823     521.1121   1425.96619     646.5823     521.1121
   1425.95093     650.1315     524.3594   1425.95093     650.1315     524.3594
   1425.93567     651.6838     526.1711   1425.93567     651.6838     526.1711
   1425.92041     653.5445     527.2576   1425.92041     653.5445     527.2576
   1425.90515     656.5814     530.1918   1425.90515     656.5814     530.1918
   1425.88989     657.7075     531.9251   1425.88989     657.7075     531.9251
   1425.87463     659.9283     534.8356   1425.87463     659.9283     534.8356
   1425.85938     662.7946     536.4247   1425.85938     662.7946     536.4247
   1425.84412     663.7932     538.1552   1425.84412     663.7932     538.1552
   1425.82886     664.8755     541.1038   1425.82886     664.8755     541.1038
   1425.81360     668.6039     543.3309   1425.81360     668.6039     543.3309
   1425.79834     670.3223     544.5584   1425.79834     670.3223     544.5584
   1425.78308     671.5205     546.5676   1425.78308     671.5205     546.5676
   1425.76782     673.8263     548.5148   1425.76782     673.8263     548.5148
   1425.75256     675.3298     551.4310   1425.75256     675.3298     551.4310
   1425.73730     677.1012     552.9398   1425.73730     677.1012     552.9398
   1425.72205     677.8460     554.6886   1425.72205     677.8460     554.6886
   1425.70679     680.0410     557.9573   1425.70679     680.0410     557.9573
   1425.69153     682.0554     559.3251   1425.69153     682.0554     559.3251
   1425.67627     683.5172     561.7831   1425.67627     683.5172     561.7831
   1425.66101     684.9965     563.8185   1425.66101     684.9965     563.8185
   1425.64575     687.3327     565.4758   1425.64575     687.3327     565.4758
   1425.63049     689.6854     567.3218   1425.63049     689.6854     567.3218
   1425.61523     689.9963     570.3020   1425.61523     689.9963     570.3020
   1425.59998     692.6125     570.7076   1425.59998     692.6125     570.7076
   1425.58472     693.3824     573.2837   1425.58472     693.3824     573.2837
   1425.56946     693.9954     574.3764   1425.56946     693.9954     574.3764
   1425.55420     696.0287     576.8195   1425.55420     696.0287     576.8195
   1425.53894     697.0880     578.8942   1425.53894     697.0880     578.8942
   1425.52368     698.9215     580.4563   1425.52368     698.9215     580.4563
   1425.50842     699.3964     582.2917   1425.50842     699.3964     582.2917
   1425.49316     701.8940     584.5515   1425.49316     701.8940     584.5515
   1425.47791     702.1310     585.4445   1425.47791     702.1310     585.4445
   1425.46265     704.1722     588.4848   1425.46265     704.1722     588.4848
   1425.44739     706.0818     589.8693   1425.44739     706.0818     589.8693
   1425.43213     705.1365     591.5555   1425.43213     705.1365     591.5555
   1425.41687     708.4164     594.2477   1425.41687     708.4164     594.2477
   1425.40161     708.4612     594.9857   1425.40161     708.4612     594.9857
   1425.38635     709.2612     597.0331   1425.38635     709.2612     597.0331
   1425.37109     710.5978     598.4634   1425.37109     710.5978     598.4634
   1425.35583     712.1628     599.8294   1425.35583     712.1628     599.8294
   1425.34058     712.5434     602.9534   1425.34058     712.5434     602.9534
   1425.32532     713.3369     602.9819   1425.32532     713.3369     602.9819
   1425.31006     714.1863     605.9718   1425.31006     714.1863     605.9718
   1425.29480     715.7458     607.6572   1425.29480     715.7458     607.6572
   1425.27954     716.1749     608.5237   1425.27954     716.1749     608.5237
   1425.26428     717.6606     609.9747   1425.26428     717.6606     609.9747
   1425.24902     717.0766     611.4249   1425.24902     717.0766     611.4249
   1425.23376     719.4320     612.7091   1425.23376     719.4320     612.7091
   1425.21851     720.0886     615.1216   1425.21851     720.0886     615.1216
   1425.20325     721.0163     616.1031   1425.20325     721.0163     616.1031
   1425.18799     721.5261     617.2845   1425.18799     721.5261     617.2845
   1425.17273     721.1503     619.6140   1425.17273     721.1503     619.6140
   1425.15747     723.1425     621.0863   1425.15747     723.1425     621.0863
   1425.14221     723.4375     621.9977   1425.14221     723.4375     621.9977
   1425.12695     724.9340     623.2916   1425.12695     724.9340     623.2916
   1425.11169     726.1115     623.9664   1425.11169     726.1115     623.9664
   1425.09644     725.5063     626.5562   1425.09644     725.5063     626.5562
   1425.08118     726.3811     628.4981   1425.08118     726.3811     628.4981
   1425.06592     728.4723     629.5483   1425.06592     728.4723     629.5483
   1425.05066     727.4918     631.0574   1425.05066     727.4918     631.0574
   1425.03540     727.4138     631.7673   1425.03540     727.4138     631.7673
   1425.02014     728.6333     633.4799   1425.02014     728.6333     633.4799
   1425.00488     728.1044     635.1661   1425.00488     728.1044     635.1661
   1424.98962     729.3964     636.0368   1424.98962     729.3964     636.0368
   1424.97437     729.7903     637.2526   1424.97437     729.7903     637.2526
   1424.95911     730.3446     638.2792   1424.95911     730.3446     638.2792
   1424.94385     729.4713     640.3559   1424.94385     729.4713     640.3559
   1424.92859     730.6223     641.4991   1424.92859     730.6223     641.4991
   1424.91333     731.8026     642.0073   1424.91333     731.8026     642.0073
   1424.89807     732.2126     643.1857   1424.89807     732.2126     643.1857
   1424.88281     732.9947     645.6061   1424.88281     732.9947     645.6061
   1424.86755     732.7946     645.6674   1424.86755     732.7946     645.6674
   1424.85229     733.1956     647.6482   1424.85229     733.1956     647.6482
   1424.83704     733.7722     648.1396   1424.83704     733.7722     648.1396
   1424.82178     732.4444     649.5471   1424.82178     732.4444     649.5471
   1424.80652     732.9706     650.6423   1424.80652     732.9706     650.6423
   1424.79126     733.7638     652.0529   1424.79126     733.7638     652.0529
   1424.77600     734.4493     652.5501   1424.77600     734.4493     652.5501
   1424.76074     733.7854     653.5170   1424.76074     733.7854     653.5170
   1424.74548     733.9375     654.8274   1424.74548     733.9375     654.8274
   1424.73022     734.4734     656.8130   1424.73022     734.4734     656.8130
   1424.71497     735.1871     656.3447   1424.71497     735.1871     656.3447
   1424.69971     733.4075     658.1176   1424.69971     733.4075     658.1176
   1424.68445     734.6664     659.3517   1424.68445     734.6664     659.3517
   1424.66919     734.2952     660.0515   1424.66919     734.2952     660.0515
   1424.65393     735.3600     660.1585   1424.65393     735.3600     660.1585
   1424.63867     733.9474     662.0032   1424.63867     733.9474     662.0032
   1424.62341     734.6110     662.9789   1424.62341     734.6110     662.9789
   1424.60815     735.3910     662.5074   1424.60815     735.3910     662.5074
   1424.59290     735.1993     663.7024   1424.59290     735.1993     663.7024
   1424.57764     735.1365     665.0845   1424.57764     735.1365     665.0845
   1424.56238     735.5572     665.7839   1424.56238     735.5572     665.7839
   1424.54712     734.3201     667.5768   1424.54712     734.3201     667.5768
   1424.53186     735.0422     667.5027   1424.53186     735.0422     667.5027
   1424.51660     735.5293     668.8704   1424.51660     735.5293     668.8704
   1424.50134     734.1062     668.1852   1424.50134     734.1062     668.1852
   1424.48608     735.8967     668.5986   1424.48608     735.8967     668.5986
   1424.47083     735.5363     669.2965   1424.47083     735.5363     669.2965
   1424.45557     735.1400     670.8229   1424.45557     735.1400     670.8229
   1424.44031     735.0290     672.0206   1424.44031     735.0290     672.0206
   1424.42505     735.5304     671.8733   1424.42505     735.5304     671.8733
   1424.40979     734.7979     673.1461   1424.40979     734.7979     673.1461
   1424.39453     735.8351     673.2084   1424.39453     735.8351     673.2084
   1424.37927     735.5059     673.1464   1424.37927     735.5059     673.1464
   1424.36401     736.4717     675.0059   1424.36401     736.4717     675.0059
   1424.34875     734.0036     675.4147   1424.34875     734.0036     675.4147
   1424.33350     734.3171     675.7579   1424.33350     734.3171     675.7579
   1424.31824     733.7521     675.5677   1424.31824     733.7521     675.5677
   1424.30298     734.2546     676.4636   1424.30298     734.2546     676.4636
   1424.28772     734.0889     676.9977   1424.28772     734.0889     676.9977
   1424.27246     733.4970     676.5182   1424.27246     733.4970     676.5182
   1424.25720     734.5141     677.5533   1424.25720     734.5141     677.5533
   1424.24194     734.0923     677.9825   1424.24194     734.0923     677.9825
   1424.22668     732.7831     679.6129   1424.22668     732.7831     679.6129
   1424.21143     733.6744     678.5923   1424.21143     733.6744     678.5923
   1424.19617     733.0988     679.0593   1424.19617     733.0988     679.0593
   1424.18091     731.2570     680.0305   1424.18091     731.2570     680.0305
   1424.16565     731.5330     679.1642   1424.16565     731.5330     679.1642
