#     FILENAME=!Skynet_57528_lach-hhg-177_20564_21000.cyb.fits
#     BASENAME=Skynet_57528_lach-hhg-177_20564_21000
#     SRC_NAME=lach-hhg-177
#     OBSERVER=hhgmadison16_9500
#     DATE_OBS=2016-05-20T18:34:07.750
#        OBSID=20564
#      SCANNUM=21000
#          MJD=57528.7747
#          UTC=66936
#     SCANTYPE=track
#     DATAMODE=HIRES
#     TUNEFREQ=1420.0000
# Actual_FREQ1=1420.0000
# Actual_FREQ2=1420.0000
#    LO1Tuning=6870.000
#     RFFILTER=1355_1435
#        OBSBW=-15.6250
#        NCHAN=1024 
#        FOCUS=37.0709
#           RA=05:38:14.72
#          DEC=31:29:03.43
#      RA(hrs)=5.637400
#     DEC(deg)=31.484300
#    AZIM(deg)=136.802
#    ELEV(deg)=80.752
#     IFattens=10.00, 9.00
#      WARNING=None
#    TCAL_XL1=7.9635
#    TCAL_YR1=9.1340
#    TCAL_XL2=7.9635
#    TCAL_YR2=9.1340
#     TRX_XL1=11.7060
#     TRX_YR1=11.7060
#     TRX_XL2=11.7060
#     TRX_YR2=11.7060
#        TAVE=1.0000
#Freq1(MHz)          XL1          YR1  Freq2(MHz)          XL2          YR2 

   1427.81250     379.6235     345.7029   1427.81250     379.6235     345.7029
   1427.79724     379.6697     347.7560   1427.79724     379.6697     347.7560
   1427.78198     380.7721     348.6691   1427.78198     380.7721     348.6691
   1427.76672     381.6152     350.0289   1427.76672     381.6152     350.0289
   1427.75146     381.6808     352.8823   1427.75146     381.6808     352.8823
   1427.73621     382.5183     353.9372   1427.73621     382.5183     353.9372
   1427.72095     383.7171     356.1779   1427.72095     383.7171     356.1779
   1427.70569     384.9958     358.4752   1427.70569     384.9958     358.4752
   1427.69043     386.2091     360.1276   1427.69043     386.2091     360.1276
   1427.67517     386.3748     362.2850   1427.67517     386.3748     362.2850
   1427.65991     388.2487     364.8307   1427.65991     388.2487     364.8307
   1427.64465     389.5477     366.3736   1427.64465     389.5477     366.3736
   1427.62939     390.4352     368.3653   1427.62939     390.4352     368.3653
   1427.61414     391.4379     371.2067   1427.61414     391.4379     371.2067
   1427.59888     393.1546     373.5437   1427.59888     393.1546     373.5437
   1427.58362     394.4035     375.4868   1427.58362     394.4035     375.4868
   1427.56836     396.0920     378.6936   1427.56836     396.0920     378.6936
   1427.55310     396.9310     379.7648   1427.55310     396.9310     379.7648
   1427.53784     398.7210     382.7093   1427.53784     398.7210     382.7093
   1427.52258     400.8543     385.3417   1427.52258     400.8543     385.3417
   1427.50732     401.7982     387.9582   1427.50732     401.7982     387.9582
   1427.49207     403.4893     389.9964   1427.49207     403.4893     389.9964
   1427.47681     404.6323     392.6328   1427.47681     404.6323     392.6328
   1427.46155     407.0231     395.5024   1427.46155     407.0231     395.5024
   1427.44629     409.0916     398.7212   1427.44629     409.0916     398.7212
   1427.43103     410.7709     400.5657   1427.43103     410.7709     400.5657
   1427.41577     412.0934     403.0490   1427.41577     412.0934     403.0490
   1427.40051     415.1552     406.2794   1427.40051     415.1552     406.2794
   1427.38525     416.3764     409.5471   1427.38525     416.3764     409.5471
   1427.37000     418.3734     412.2065   1427.37000     418.3734     412.2065
   1427.35474     420.3055     414.6342   1427.35474     420.3055     414.6342
   1427.33948     423.2118     417.7431   1427.33948     423.2118     417.7431
   1427.32422     424.7612     420.5724   1427.32422     424.7612     420.5724
   1427.30896     427.1843     422.5412   1427.30896     427.1843     422.5412
   1427.29370     430.0510     426.5121   1427.29370     430.0510     426.5121
   1427.27844     431.7776     428.9952   1427.27844     431.7776     428.9952
   1427.26318     433.6665     432.3742   1427.26318     433.6665     432.3742
   1427.24792     436.6947     435.2468   1427.24792     436.6947     435.2468
   1427.23267     438.3464     438.1916   1427.23267     438.3464     438.1916
   1427.21741     440.6879     441.7295   1427.21741     440.6879     441.7295
   1427.20215     442.8637     443.9924   1427.20215     442.8637     443.9924
   1427.18689     445.9825     447.0639   1427.18689     445.9825     447.0639
   1427.17163     448.6590     450.5161   1427.17163     448.6590     450.5161
   1427.15637     451.2929     452.4780   1427.15637     451.2929     452.4780
   1427.14111     453.9333     456.0084   1427.14111     453.9333     456.0084
   1427.12585     456.2840     458.7167   1427.12585     456.2840     458.7167
   1427.11060     459.4471     461.9554   1427.11060     459.4471     461.9554
   1427.09534     462.1703     465.1488   1427.09534     462.1703     465.1488
   1427.08008     463.1342     468.1825   1427.08008     463.1342     468.1825
   1427.06482     466.9692     471.8671   1427.06482     466.9692     471.8671
   1427.04956     469.7404     474.2286   1427.04956     469.7404     474.2286
   1427.03430     472.1613     477.0865   1427.03430     472.1613     477.0865
   1427.01904     475.0343     479.6658   1427.01904     475.0343     479.6658
   1427.00378     478.2716     483.8798   1427.00378     478.2716     483.8798
   1426.98853     481.0842     485.9726   1426.98853     481.0842     485.9726
   1426.97327     483.8641     488.7270   1426.97327     483.8641     488.7270
   1426.95801     486.4591     492.5385   1426.95801     486.4591     492.5385
   1426.94275     489.9798     495.0659   1426.94275     489.9798     495.0659
   1426.92749     492.8044     497.8186   1426.92749     492.8044     497.8186
   1426.91223     495.7639     501.1803   1426.91223     495.7639     501.1803
   1426.89697     498.2570     503.6979   1426.89697     498.2570     503.6979
   1426.88171     501.3129     505.8974   1426.88171     501.3129     505.8974
   1426.86646     504.0426     509.3015   1426.86646     504.0426     509.3015
   1426.85120     506.9872     512.0437   1426.85120     506.9872     512.0437
   1426.83594     509.9984     514.9777   1426.83594     509.9984     514.9777
   1426.82068     513.8354     518.4464   1426.82068     513.8354     518.4464
   1426.80542     516.3548     520.0366   1426.80542     516.3548     520.0366
   1426.79016     519.8733     523.6423   1426.79016     519.8733     523.6423
   1426.77490     523.3383     527.7473   1426.77490     523.3383     527.7473
   1426.75964     526.0969     529.5079   1426.75964     526.0969     529.5079
   1426.74438     527.9626     531.3770   1426.74438     527.9626     531.3770
   1426.72913     531.0739     534.2515   1426.72913     531.0739     534.2515
   1426.71387     535.0502     537.1924   1426.71387     535.0502     537.1924
   1426.69861     538.1584     539.2476   1426.69861     538.1584     539.2476
   1426.68335     541.8767     542.7138   1426.68335     541.8767     542.7138
   1426.66809     544.2911     544.6464   1426.66809     544.2911     544.6464
   1426.65283     547.7609     547.6527   1426.65283     547.7609     547.6527
   1426.63757     550.7545     550.4362   1426.63757     550.7545     550.4362
   1426.62231     555.0762     555.1996   1426.62231     555.0762     555.1996
   1426.60706     556.5521     554.6957   1426.60706     556.5521     554.6957
   1426.59180     560.3113     557.6835   1426.59180     560.3113     557.6835
   1426.57654     563.1359     560.2850   1426.57654     563.1359     560.2850
   1426.56128     566.1224     561.9193   1426.56128     566.1224     561.9193
   1426.54602     569.3457     564.2959   1426.54602     569.3457     564.2959
   1426.53076     573.2030     567.0294   1426.53076     573.2030     567.0294
   1426.51550     575.6231     569.5752   1426.51550     575.6231     569.5752
   1426.50024     577.7337     571.7779   1426.50024     577.7337     571.7779
   1426.48499     580.9601     574.2413   1426.48499     580.9601     574.2413
   1426.46973     585.4621     575.9427   1426.46973     585.4621     575.9427
   1426.45447     587.9255     578.4233   1426.45447     587.9255     578.4233
   1426.43921     591.3401     580.3698   1426.43921     591.3401     580.3698
   1426.42395     593.4124     584.0165   1426.42395     593.4124     584.0165
   1426.40869     597.8336     584.4285   1426.40869     597.8336     584.4285
   1426.39343     599.8485     585.9261   1426.39343     599.8485     585.9261
   1426.37817     601.9292     587.7458   1426.37817     601.9292     587.7458
   1426.36292     606.2827     590.5614   1426.36292     606.2827     590.5614
   1426.34766     608.9114     591.4521   1426.34766     608.9114     591.4521
   1426.33240     613.2587     593.9505   1426.33240     613.2587     593.9505
   1426.31714     614.8138     596.0554   1426.31714     614.8138     596.0554
   1426.30188     617.8489     598.0406   1426.30188     617.8489     598.0406
   1426.28662     620.8688     600.4250   1426.28662     620.8688     600.4250
   1426.27136     622.6071     602.0305   1426.27136     622.6071     602.0305
   1426.25610     626.9496     604.3593   1426.25610     626.9496     604.3593
   1426.24084     629.6931     604.6400   1426.24084     629.6931     604.6400
   1426.22559     632.3502     606.3290   1426.22559     632.3502     606.3290
   1426.21033     635.5745     609.0322   1426.21033     635.5745     609.0322
   1426.19507     637.0667     609.7105   1426.19507     637.0667     609.7105
   1426.17981     640.7048     611.7662   1426.17981     640.7048     611.7662
   1426.16455     643.9247     613.1102   1426.16455     643.9247     613.1102
   1426.14929     647.1976     613.8094   1426.14929     647.1976     613.8094
   1426.13403     648.4208     616.1860   1426.13403     648.4208     616.1860
   1426.11877     651.7235     617.7470   1426.11877     651.7235     617.7470
   1426.10352     655.2781     618.9302   1426.10352     655.2781     618.9302
   1426.08826     656.2770     620.3845   1426.08826     656.2770     620.3845
   1426.07300     659.6567     622.2798   1426.07300     659.6567     622.2798
   1426.05774     662.0271     623.1508   1426.05774     662.0271     623.1508
   1426.04248     665.2812     624.1045   1426.04248     665.2812     624.1045
   1426.02722     667.4625     625.5319   1426.02722     667.4625     625.5319
   1426.01196     670.1492     627.3371   1426.01196     670.1492     627.3371
   1425.99670     671.9371     628.1458   1425.99670     671.9371     628.1458
   1425.98145     675.1753     629.2130   1425.98145     675.1753     629.2130
   1425.96619     677.3015     630.4333   1425.96619     677.3015     630.4333
   1425.95093     679.6117     631.2880   1425.95093     679.6117     631.2880
   1425.93567     682.2366     632.2174   1425.93567     682.2366     632.2174
   1425.92041     685.0145     633.8271   1425.92041     685.0145     633.8271
   1425.90515     687.3959     634.2054   1425.90515     687.3959     634.2054
   1425.88989     689.2314     634.9624   1425.88989     689.2314     634.9624
   1425.87463     690.9771     636.6674   1425.87463     690.9771     636.6674
   1425.85938     693.7915     637.3712   1425.85938     693.7915     637.3712
   1425.84412     695.5848     637.7646   1425.84412     695.5848     637.7646
   1425.82886     698.0313     639.3311   1425.82886     698.0313     639.3311
   1425.81360     700.5534     640.7301   1425.81360     700.5534     640.7301
   1425.79834     702.5128     640.5202   1425.79834     702.5128     640.5202
   1425.78308     704.6568     640.3662   1425.78308     704.6568     640.3662
   1425.76782     707.5946     641.5413   1425.76782     707.5946     641.5413
   1425.75256     708.7383     643.0367   1425.75256     708.7383     643.0367
   1425.73730     710.2780     642.4943   1425.73730     710.2780     642.4943
   1425.72205     712.6529     643.3075   1425.72205     712.6529     643.3075
   1425.70679     714.4750     645.1152   1425.70679     714.4750     645.1152
   1425.69153     715.8026     644.7556   1425.69153     715.8026     644.7556
   1425.67627     718.4307     645.3779   1425.67627     718.4307     645.3779
   1425.66101     720.3832     645.8954   1425.66101     720.3832     645.8954
   1425.64575     721.6306     646.0669   1425.64575     721.6306     646.0669
   1425.63049     724.1022     646.8828   1425.63049     724.1022     646.8828
   1425.61523     725.0414     647.4261   1425.61523     725.0414     647.4261
   1425.59998     726.8478     648.5782   1425.59998     726.8478     648.5782
   1425.58472     727.1680     648.8157   1425.58472     727.1680     648.8157
   1425.56946     730.8398     649.1459   1425.56946     730.8398     649.1459
   1425.55420     731.8244     648.5535   1425.55420     731.8244     648.5535
   1425.53894     734.3700     650.1624   1425.53894     734.3700     650.1624
   1425.52368     734.2562     649.7370   1425.52368     734.2562     649.7370
   1425.50842     737.0436     650.4745   1425.50842     737.0436     650.4745
   1425.49316     737.8959     650.3377   1425.49316     737.8959     650.3377
   1425.47791     739.2231     650.1227   1425.47791     739.2231     650.1227
   1425.46265     740.6975     651.0683   1425.46265     740.6975     651.0683
   1425.44739     741.8249     649.9000   1425.44739     741.8249     649.9000
   1425.43213     743.3677     650.5058   1425.43213     743.3677     650.5058
   1425.41687     744.1765     650.7025   1425.41687     744.1765     650.7025
   1425.40161     745.8674     651.0685   1425.40161     745.8674     651.0685
   1425.38635     746.6655     651.7880   1425.38635     746.6655     651.7880
   1425.37109     749.5278     652.2556   1425.37109     749.5278     652.2556
   1425.35583     748.9057     652.2513   1425.35583     748.9057     652.2513
   1425.34058     749.8680     651.6959   1425.34058     749.8680     651.6959
   1425.32532     751.7726     651.1144   1425.32532     751.7726     651.1144
   1425.31006     753.4415     651.9948   1425.31006     753.4415     651.9948
   1425.29480     754.6702     652.3990   1425.29480     754.6702     652.3990
   1425.27954     755.2948     651.0437   1425.27954     755.2948     651.0437
   1425.26428     757.4016     651.6108   1425.26428     757.4016     651.6108
   1425.24902     757.2996     651.3702   1425.24902     757.2996     651.3702
   1425.23376     757.0440     651.0183   1425.23376     757.0440     651.0183
   1425.21851     758.3218     652.2824   1425.21851     758.3218     652.2824
   1425.20325     760.0558     651.3687   1425.20325     760.0558     651.3687
   1425.18799     760.4418     650.8031   1425.18799     760.4418     650.8031
   1425.17273     760.1147     651.1203   1425.17273     760.1147     651.1203
   1425.15747     760.7266     650.9366   1425.15747     760.7266     650.9366
   1425.14221     762.8123     651.1628   1425.14221     762.8123     651.1628
   1425.12695     764.0245     651.0623   1425.12695     764.0245     651.0623
   1425.11169     763.6177     650.4005   1425.11169     763.6177     650.4005
   1425.09644     764.6364     651.1550   1425.09644     764.6364     651.1550
   1425.08118     765.7817     649.9888   1425.08118     765.7817     649.9888
   1425.06592     765.7372     649.4506   1425.06592     765.7372     649.4506
   1425.05066     766.2477     649.9771   1425.05066     766.2477     649.9771
   1425.03540     768.3060     648.8042   1425.03540     768.3060     648.8042
   1425.02014     768.8970     648.5638   1425.02014     768.8970     648.5638
   1425.00488     769.3813     648.4746   1425.00488     769.3813     648.4746
   1424.98962     768.6433     648.2246   1424.98962     768.6433     648.2246
   1424.97437     768.8596     648.2466   1424.97437     768.8596     648.2466
   1424.95911     769.4564     647.7224   1424.95911     769.4564     647.7224
   1424.94385     769.9001     646.6536   1424.94385     769.9001     646.6536
   1424.92859     772.1778     646.8886   1424.92859     772.1778     646.8886
   1424.91333     771.8043     645.6813   1424.91333     771.8043     645.6813
   1424.89807     771.6233     646.0059   1424.89807     771.6233     646.0059
   1424.88281     770.4291     646.8292   1424.88281     770.4291     646.8292
   1424.86755     772.3860     645.2227   1424.86755     772.3860     645.2227
   1424.85229     772.0123     644.3713   1424.85229     772.0123     644.3713
   1424.83704     772.6168     643.9185   1424.83704     772.6168     643.9185
   1424.82178     773.4998     643.7458   1424.82178     773.4998     643.7458
   1424.80652     773.7573     644.0051   1424.80652     773.7573     644.0051
   1424.79126     772.4837     644.0328   1424.79126     772.4837     644.0328
   1424.77600     773.7827     642.2144   1424.77600     773.7827     642.2144
   1424.76074     772.6042     641.6292   1424.76074     772.6042     641.6292
   1424.74548     773.0148     641.5413   1424.74548     773.0148     641.5413
   1424.73022     773.8030     641.3705   1424.73022     773.8030     641.3705
   1424.71497     774.0033     640.8428   1424.71497     774.0033     640.8428
   1424.69971     772.4089     639.5903   1424.69971     772.4089     639.5903
   1424.68445     772.6696     639.0530   1424.68445     772.6696     639.0530
   1424.66919     773.2179     638.8488   1424.66919     773.2179     638.8488
   1424.65393     772.9208     638.9500   1424.65393     772.9208     638.9500
   1424.63867     774.1957     637.7892   1424.63867     774.1957     637.7892
   1424.62341     772.9801     637.7684   1424.62341     772.9801     637.7684
   1424.60815     773.1415     637.0723   1424.60815     773.1415     637.0723
   1424.59290     772.2509     635.7902   1424.59290     772.2509     635.7902
   1424.57764     772.0433     635.7344   1424.57764     772.0433     635.7344
   1424.56238     772.1928     635.6442   1424.56238     772.1928     635.6442
   1424.54712     773.8047     634.0710   1424.54712     773.8047     634.0710
   1424.53186     772.8812     633.5186   1424.53186     772.8812     633.5186
   1424.51660     773.6595     633.0656   1424.51660     773.6595     633.0656
   1424.50134     772.9981     632.8712   1424.50134     772.9981     632.8712
   1424.48608     771.9044     632.0472   1424.48608     771.9044     632.0472
   1424.47083     771.5331     631.4355   1424.47083     771.5331     631.4355
   1424.45557     772.0220     630.2906   1424.45557     772.0220     630.2906
   1424.44031     772.4952     630.6632   1424.44031     772.4952     630.6632
   1424.42505     771.5827     630.1555   1424.42505     771.5827     630.1555
   1424.40979     770.9857     629.8806   1424.40979     770.9857     629.8806
   1424.39453     770.1552     626.6896   1424.39453     770.1552     626.6896
   1424.37927     770.6124     628.5922   1424.37927     770.6124     628.5922
   1424.36401     770.7664     627.3091   1424.36401     770.7664     627.3091
   1424.34875     769.8724     626.8473   1424.34875     769.8724     626.8473
   1424.33350     770.7120     626.3145   1424.33350     770.7120     626.3145
   1424.31824     768.5247     624.9056   1424.31824     768.5247     624.9056
   1424.30298     768.7247     624.1454   1424.30298     768.7247     624.1454
   1424.28772     768.8216     624.2559   1424.28772     768.8216     624.2559
   1424.27246     767.6312     624.2162   1424.27246     767.6312     624.2162
   1424.25720     769.3505     622.0355   1424.25720     769.3505     622.0355
   1424.24194     768.3575     621.4251   1424.24194     768.3575     621.4251
   1424.22668     768.5103     621.7932   1424.22668     768.5103     621.7932
   1424.21143     766.9512     620.2271   1424.21143     766.9512     620.2271
   1424.19617     766.1518     620.7311   1424.19617     766.1518     620.7311
   1424.18091     766.9870     618.7875   1424.18091     766.9870     618.7875
   1424.16565     765.6826     618.4085   1424.16565     765.6826     618.4085
