#     FILENAME=!Skynet_57528_lach-hhg-148_20484_20972.cyb.fits
#     BASENAME=Skynet_57528_lach-hhg-148_20484_20972
#     SRC_NAME=lach-hhg-148
#     OBSERVER=hhgmadison16_9500
#     DATE_OBS=2016-05-20T17:33:37.750
#        OBSID=20484
#      SCANNUM=20972
#          MJD=57528.7327
#          UTC=63306
#     SCANTYPE=track
#     DATAMODE=HIRES
#     TUNEFREQ=1420.0000
# Actual_FREQ1=1420.0000
# Actual_FREQ2=1420.0000
#    LO1Tuning=6870.000
#     RFFILTER=1355_1435
#        OBSBW=-15.6250
#        NCHAN=1024 
#        FOCUS=37.0489
#           RA=03:54:19.88
#          DEC=53:43:20.20
#      RA(hrs)=3.905500
#     DEC(deg)=53.722300
#    AZIM(deg)=351.811
#    ELEV(deg)=74.405
#     IFattens=10.00, 9.00
#      WARNING=None
#    TCAL_XL1=7.9635
#    TCAL_YR1=9.1340
#    TCAL_XL2=7.9635
#    TCAL_YR2=9.1340
#     TRX_XL1=11.7060
#     TRX_YR1=11.7060
#     TRX_XL2=11.7060
#     TRX_YR2=11.7060
#        TAVE=1.0000
#Freq1(MHz)          XL1          YR1  Freq2(MHz)          XL2          YR2 

   1427.81250     380.8470     333.4725   1427.81250     380.8470     333.4725
   1427.79724     381.8814     334.6962   1427.79724     381.8814     334.6962
   1427.78198     382.2849     336.7332   1427.78198     382.2849     336.7332
   1427.76672     383.4822     338.0385   1427.76672     383.4822     338.0385
   1427.75146     383.7558     339.5278   1427.75146     383.7558     339.5278
   1427.73621     384.6798     340.8997   1427.73621     384.6798     340.8997
   1427.72095     385.8115     342.1355   1427.72095     385.8115     342.1355
   1427.70569     386.4368     344.0418   1427.70569     386.4368     344.0418
   1427.69043     388.1638     345.1719   1427.69043     388.1638     345.1719
   1427.67517     389.2461     346.9523   1427.67517     389.2461     346.9523
   1427.65991     390.7080     348.7331   1427.65991     390.7080     348.7331
   1427.64465     391.1232     349.7391   1427.64465     391.1232     349.7391
   1427.62939     392.5190     351.8184   1427.62939     392.5190     351.8184
   1427.61414     393.9308     353.7726   1427.61414     393.9308     353.7726
   1427.59888     395.7159     355.3723   1427.59888     395.7159     355.3723
   1427.58362     396.9619     357.1914   1427.58362     396.9619     357.1914
   1427.56836     398.2673     358.1702   1427.56836     398.2673     358.1702
   1427.55310     399.5053     360.5562   1427.55310     399.5053     360.5562
   1427.53784     401.2134     362.4981   1427.53784     401.2134     362.4981
   1427.52258     403.4011     364.1771   1427.52258     403.4011     364.1771
   1427.50732     404.6649     366.5871   1427.50732     404.6649     366.5871
   1427.49207     406.9317     368.2415   1427.49207     406.9317     368.2415
   1427.47681     408.1455     370.1261   1427.47681     408.1455     370.1261
   1427.46155     410.2471     372.1267   1427.46155     410.2471     372.1267
   1427.44629     411.7251     373.8698   1427.44629     411.7251     373.8698
   1427.43103     413.7354     376.1025   1427.43103     413.7354     376.1025
   1427.41577     416.0079     377.9187   1427.41577     416.0079     377.9187
   1427.40051     417.1099     379.5445   1427.40051     417.1099     379.5445
   1427.38525     418.6855     381.8695   1427.38525     418.6855     381.8695
   1427.37000     421.1183     384.1331   1427.37000     421.1183     384.1331
   1427.35474     424.1329     386.2009   1427.35474     424.1329     386.2009
   1427.33948     425.7286     388.3298   1427.33948     425.7286     388.3298
   1427.32422     427.7026     390.4251   1427.32422     427.7026     390.4251
   1427.30896     430.4246     393.0728   1427.30896     430.4246     393.0728
   1427.29370     432.3080     393.9159   1427.29370     432.3080     393.9159
   1427.27844     434.4889     396.0331   1427.27844     434.4889     396.0331
   1427.26318     437.1602     398.7870   1427.26318     437.1602     398.7870
   1427.24792     439.5783     400.6657   1427.24792     439.5783     400.6657
   1427.23267     442.2940     403.3621   1427.23267     442.2940     403.3621
   1427.21741     444.0146     405.9154   1427.21741     444.0146     405.9154
   1427.20215     446.2942     407.7684   1427.20215     446.2942     407.7684
   1427.18689     449.6781     409.3905   1427.18689     449.6781     409.3905
   1427.17163     452.3276     412.4363   1427.17163     452.3276     412.4363
   1427.15637     454.4374     414.1577   1427.15637     454.4374     414.1577
   1427.14111     457.3376     416.5836   1427.14111     457.3376     416.5836
   1427.12585     459.7669     419.0029   1427.12585     459.7669     419.0029
   1427.11060     462.7947     420.5438   1427.11060     462.7947     420.5438
   1427.09534     464.8329     422.9541   1427.09534     464.8329     422.9541
   1427.08008     467.4964     425.1025   1427.08008     467.4964     425.1025
   1427.06482     471.3660     427.7838   1427.06482     471.3660     427.7838
   1427.04956     473.1105     430.4308   1427.04956     473.1105     430.4308
   1427.03430     476.2180     432.4442   1427.03430     476.2180     432.4442
   1427.01904     479.2677     434.1457   1427.01904     479.2677     434.1457
   1427.00378     481.9538     436.9787   1427.00378     481.9538     436.9787
   1426.98853     484.7183     438.1953   1426.98853     484.7183     438.1953
   1426.97327     487.4308     440.5264   1426.97327     487.4308     440.5264
   1426.95801     490.7566     442.6482   1426.95801     490.7566     442.6482
   1426.94275     494.4380     444.4875   1426.94275     494.4380     444.4875
   1426.92749     496.0683     447.6172   1426.92749     496.0683     447.6172
   1426.91223     499.3192     449.3170   1426.91223     499.3192     449.3170
   1426.89697     502.8813     452.5135   1426.89697     502.8813     452.5135
   1426.88171     505.9497     453.5541   1426.88171     505.9497     453.5541
   1426.86646     509.0493     456.3893   1426.86646     509.0493     456.3893
   1426.85120     511.2600     458.6377   1426.85120     511.2600     458.6377
   1426.83594     515.3872     460.5835   1426.83594     515.3872     460.5835
   1426.82068     518.0525     463.0580   1426.82068     518.0525     463.0580
   1426.80542     521.7565     464.0965   1426.80542     521.7565     464.0965
   1426.79016     523.9595     466.5867   1426.79016     523.9595     466.5867
   1426.77490     526.7617     468.4113   1426.77490     526.7617     468.4113
   1426.75964     530.5779     471.4084   1426.75964     530.5779     471.4084
   1426.74438     533.7706     473.6871   1426.74438     533.7706     473.6871
   1426.72913     536.7223     474.8901   1426.72913     536.7223     474.8901
   1426.71387     540.2854     477.3952   1426.71387     540.2854     477.3952
   1426.69861     544.0869     479.1077   1426.69861     544.0869     479.1077
   1426.68335     545.9666     480.8933   1426.68335     545.9666     480.8933
   1426.66809     549.6798     483.4765   1426.66809     549.6798     483.4765
   1426.65283     551.8423     485.8403   1426.65283     551.8423     485.8403
   1426.63757     555.3090     486.7529   1426.63757     555.3090     486.7529
   1426.62231     560.3764     490.4125   1426.62231     560.3764     490.4125
   1426.60706     562.3029     491.1629   1426.60706     562.3029     491.1629
   1426.59180     565.0820     492.4044   1426.59180     565.0820     492.4044
   1426.57654     567.9815     495.2430   1426.57654     567.9815     495.2430
   1426.56128     571.7682     497.2609   1426.56128     571.7682     497.2609
   1426.54602     574.5038     498.7726   1426.54602     574.5038     498.7726
   1426.53076     578.0673     501.2717   1426.53076     578.0673     501.2717
   1426.51550     580.7719     503.1180   1426.51550     580.7719     503.1180
   1426.50024     583.9940     505.5883   1426.50024     583.9940     505.5883
   1426.48499     588.2092     506.3141   1426.48499     588.2092     506.3141
   1426.46973     591.6162     508.2330   1426.46973     591.6162     508.2330
   1426.45447     593.5267     510.4215   1426.45447     593.5267     510.4215
   1426.43921     596.5287     511.4348   1426.43921     596.5287     511.4348
   1426.42395     600.7974     513.8658   1426.42395     600.7974     513.8658
   1426.40869     602.5723     515.8713   1426.40869     602.5723     515.8713
   1426.39343     606.7496     517.9023   1426.39343     606.7496     517.9023
   1426.37817     609.0864     519.1864   1426.37817     609.0864     519.1864
   1426.36292     612.5690     520.9203   1426.36292     612.5690     520.9203
   1426.34766     615.5922     522.6200   1426.34766     615.5922     522.6200
   1426.33240     618.3250     523.9479   1426.33240     618.3250     523.9479
   1426.31714     620.5461     525.9824   1426.31714     620.5461     525.9824
   1426.30188     624.5308     527.7287   1426.30188     624.5308     527.7287
   1426.28662     626.8222     528.9211   1426.28662     626.8222     528.9211
   1426.27136     630.0071     531.0214   1426.27136     630.0071     531.0214
   1426.25610     633.6589     532.8954   1426.25610     633.6589     532.8954
   1426.24084     636.4993     534.0845   1426.24084     636.4993     534.0845
   1426.22559     638.6465     535.5319   1426.22559     638.6465     535.5319
   1426.21033     642.8539     537.3569   1426.21033     642.8539     537.3569
   1426.19507     645.1160     538.5297   1426.19507     645.1160     538.5297
   1426.17981     647.3793     540.6888   1426.17981     647.3793     540.6888
   1426.16455     649.5674     541.8699   1426.16455     649.5674     541.8699
   1426.14929     652.6321     543.1732   1426.14929     652.6321     543.1732
   1426.13403     656.1526     544.1552   1426.13403     656.1526     544.1552
   1426.11877     658.5056     545.1475   1426.11877     658.5056     545.1475
   1426.10352     662.0527     547.1090   1426.10352     662.0527     547.1090
   1426.08826     665.2616     549.1261   1426.08826     665.2616     549.1261
   1426.07300     667.4424     550.0664   1426.07300     667.4424     550.0664
   1426.05774     669.2028     551.8417   1426.05774     669.2028     551.8417
   1426.04248     672.9131     552.9297   1426.04248     672.9131     552.9297
   1426.02722     675.3736     554.0385   1426.02722     675.3736     554.0385
   1426.01196     676.7482     555.4672   1426.01196     676.7482     555.4672
   1425.99670     678.8604     557.1781   1425.99670     678.8604     557.1781
   1425.98145     683.1747     558.1370   1425.98145     683.1747     558.1370
   1425.96619     685.6871     558.8941   1425.96619     685.6871     558.8941
   1425.95093     687.8521     560.8516   1425.95093     687.8521     560.8516
   1425.93567     690.2548     562.0208   1425.93567     690.2548     562.0208
   1425.92041     692.0729     562.8279   1425.92041     692.0729     562.8279
   1425.90515     694.3654     564.4158   1425.90515     694.3654     564.4158
   1425.88989     697.2795     565.1592   1425.88989     697.2795     565.1592
   1425.87463     699.7673     566.7012   1425.87463     699.7673     566.7012
   1425.85938     701.8047     568.4101   1425.85938     701.8047     568.4101
   1425.84412     705.0034     569.4600   1425.84412     705.0034     569.4600
   1425.82886     706.7068     570.9647   1425.82886     706.7068     570.9647
   1425.81360     709.6699     571.5173   1425.81360     709.6699     571.5173
   1425.79834     711.9034     572.1026   1425.79834     711.9034     572.1026
   1425.78308     712.4247     574.6360   1425.78308     712.4247     574.6360
   1425.76782     715.3599     575.1774   1425.76782     715.3599     575.1774
   1425.75256     716.6539     575.7012   1425.75256     716.6539     575.7012
   1425.73730     718.9619     576.0717   1425.73730     718.9619     576.0717
   1425.72205     721.0184     577.6906   1425.72205     721.0184     577.6906
   1425.70679     722.6589     578.7936   1425.70679     722.6589     578.7936
   1425.69153     724.0115     579.3569   1425.69153     724.0115     579.3569
   1425.67627     727.8801     580.3971   1425.67627     727.8801     580.3971
   1425.66101     728.1133     581.4368   1425.66101     728.1133     581.4368
   1425.64575     730.2070     582.2554   1425.64575     730.2070     582.2554
   1425.63049     733.9684     582.5209   1425.63049     733.9684     582.5209
   1425.61523     734.9040     583.2643   1425.61523     734.9040     583.2643
   1425.59998     735.9572     585.2958   1425.59998     735.9572     585.2958
   1425.58472     737.4244     585.8245   1425.58472     737.4244     585.8245
   1425.56946     738.7846     586.7737   1425.56946     738.7846     586.7737
   1425.55420     741.1357     588.1298   1425.55420     741.1357     588.1298
   1425.53894     741.5313     587.7051   1425.53894     741.5313     587.7051
   1425.52368     743.7432     589.0626   1425.52368     743.7432     589.0626
   1425.50842     744.4876     590.0691   1425.50842     744.4876     590.0691
   1425.49316     747.3102     590.4082   1425.49316     747.3102     590.4082
   1425.47791     748.9464     590.8793   1425.47791     748.9464     590.8793
   1425.46265     750.9409     592.2558   1425.46265     750.9409     592.2558
   1425.44739     752.3869     593.5231   1425.44739     752.3869     593.5231
   1425.43213     752.5468     593.1920   1425.43213     752.5468     593.1920
   1425.41687     754.2725     593.6827   1425.41687     754.2725     593.6827
   1425.40161     755.5850     594.8693   1425.40161     755.5850     594.8693
   1425.38635     757.4688     596.0374   1425.38635     757.4688     596.0374
   1425.37109     757.3079     595.5289   1425.37109     757.3079     595.5289
   1425.35583     759.5720     596.7020   1425.35583     759.5720     596.7020
   1425.34058     761.3005     598.1650   1425.34058     761.3005     598.1650
   1425.32532     762.1064     597.6641   1425.32532     762.1064     597.6641
   1425.31006     763.1040     598.2795   1425.31006     763.1040     598.2795
   1425.29480     764.0442     598.9999   1425.29480     764.0442     598.9999
   1425.27954     765.8873     599.5785   1425.27954     765.8873     599.5785
   1425.26428     766.8477     600.1202   1425.26428     766.8477     600.1202
   1425.24902     767.1437     601.3125   1425.24902     767.1437     601.3125
   1425.23376     768.5547     600.5644   1425.23376     768.5547     600.5644
   1425.21851     768.8211     601.4584   1425.21851     768.8211     601.4584
   1425.20325     769.6483     602.1972   1425.20325     769.6483     602.1972
   1425.18799     771.9891     603.9646   1425.18799     771.9891     603.9646
   1425.17273     771.8724     603.8550   1425.17273     771.8724     603.8550
   1425.15747     772.6860     602.9304   1425.15747     772.6860     602.9304
   1425.14221     774.1613     604.6920   1425.14221     774.1613     604.6920
   1425.12695     775.0103     604.7518   1425.12695     775.0103     604.7518
   1425.11169     774.9030     605.2654   1425.11169     774.9030     605.2654
   1425.09644     775.7155     605.6721   1425.09644     775.7155     605.6721
   1425.08118     775.4690     606.3505   1425.08118     775.4690     606.3505
   1425.06592     777.4314     606.3745   1425.06592     777.4314     606.3745
   1425.05066     778.0508     606.8328   1425.05066     778.0508     606.8328
   1425.03540     777.5187     607.7291   1425.03540     777.5187     607.7291
   1425.02014     778.4752     606.8936   1425.02014     778.4752     606.8936
   1425.00488     780.1235     606.9177   1425.00488     780.1235     606.9177
   1424.98962     778.8906     607.6208   1424.98962     778.8906     607.6208
   1424.97437     780.1456     607.9976   1424.97437     780.1456     607.9976
   1424.95911     780.4601     608.6393   1424.95911     780.4601     608.6393
   1424.94385     780.3616     609.8103   1424.94385     780.3616     609.8103
   1424.92859     781.0086     609.3063   1424.92859     781.0086     609.3063
   1424.91333     782.5447     609.0900   1424.91333     782.5447     609.0900
   1424.89807     782.1807     610.0281   1424.89807     782.1807     610.0281
   1424.88281     781.8941     610.8566   1424.88281     781.8941     610.8566
   1424.86755     781.3014     610.1355   1424.86755     781.3014     610.1355
   1424.85229     782.7741     611.2191   1424.85229     782.7741     611.2191
   1424.83704     782.7391     610.8209   1424.83704     782.7391     610.8209
   1424.82178     784.5092     611.3679   1424.82178     784.5092     611.3679
   1424.80652     784.1917     611.2170   1424.80652     784.1917     611.2170
   1424.79126     782.3715     610.5560   1424.79126     782.3715     610.5560
   1424.77600     783.6024     612.3677   1424.77600     783.6024     612.3677
   1424.76074     783.9637     613.1896   1424.76074     783.9637     613.1896
   1424.74548     784.2090     612.3019   1424.74548     784.2090     612.3019
   1424.73022     783.5325     612.6946   1424.73022     783.5325     612.6946
   1424.71497     784.7878     613.1200   1424.71497     784.7878     613.1200
   1424.69971     782.9245     613.1019   1424.69971     782.9245     613.1019
   1424.68445     783.0582     612.9398   1424.68445     783.0582     612.9398
   1424.66919     782.6226     613.2628   1424.66919     782.6226     613.2628
   1424.65393     784.5183     612.7000   1424.65393     784.5183     612.7000
   1424.63867     782.9675     612.8735   1424.63867     782.9675     612.8735
   1424.62341     782.7615     614.2469   1424.62341     782.7615     614.2469
   1424.60815     782.9142     612.7247   1424.60815     782.9142     612.7247
   1424.59290     783.1761     613.8253   1424.59290     783.1761     613.8253
   1424.57764     783.6865     613.3173   1424.57764     783.6865     613.3173
   1424.56238     783.7208     613.0319   1424.56238     783.7208     613.0319
   1424.54712     783.4441     614.7314   1424.54712     783.4441     614.7314
   1424.53186     783.8392     613.8157   1424.53186     783.8392     613.8157
   1424.51660     783.3386     613.7054   1424.51660     783.3386     613.7054
   1424.50134     781.1462     613.3937   1424.50134     781.1462     613.3937
   1424.48608     782.2062     613.2989   1424.48608     782.2062     613.2989
   1424.47083     781.3244     614.7606   1424.47083     781.3244     614.7606
   1424.45557     781.6127     613.5689   1424.45557     781.6127     613.5689
   1424.44031     781.6538     614.3575   1424.44031     781.6538     614.3575
   1424.42505     781.1088     614.3181   1424.42505     781.1088     614.3181
   1424.40979     780.4016     614.0279   1424.40979     780.4016     614.0279
   1424.39453     779.4142     614.1936   1424.39453     779.4142     614.1936
   1424.37927     780.6830     612.8396   1424.37927     780.6830     612.8396
   1424.36401     778.8384     614.3091   1424.36401     778.8384     614.3091
   1424.34875     780.0168     613.8878   1424.34875     780.0168     613.8878
   1424.33350     777.5100     614.2054   1424.33350     777.5100     614.2054
   1424.31824     779.0217     612.8552   1424.31824     779.0217     612.8552
   1424.30298     778.5925     613.9682   1424.30298     778.5925     613.9682
   1424.28772     779.4088     614.1666   1424.28772     779.4088     614.1666
   1424.27246     778.4443     614.2448   1424.27246     778.4443     614.2448
   1424.25720     775.6089     613.4729   1424.25720     775.6089     613.4729
   1424.24194     777.5422     614.0655   1424.24194     777.5422     614.0655
   1424.22668     775.6891     613.2704   1424.22668     775.6891     613.2704
   1424.21143     775.3448     613.3642   1424.21143     775.3448     613.3642
   1424.19617     775.4297     613.4694   1424.19617     775.4297     613.4694
   1424.18091     775.6515     612.9891   1424.18091     775.6515     612.9891
   1424.16565     773.5457     613.1321   1424.16565     773.5457     613.1321
