#     FILENAME=!Skynet_57528_lach-cc-233_20649_21023.cyb.fits
#     BASENAME=Skynet_57528_lach-cc-233_20649_21023
#     SRC_NAME=lach-cc-233
#     OBSERVER=ccmadison16_9505
#     DATE_OBS=2016-05-20T19:21:54.250
#        OBSID=20649
#      SCANNUM=21023
#          MJD=57528.8079
#          UTC=69803
#     SCANTYPE=track
#     DATAMODE=HIRES
#     TUNEFREQ=1420.0000
# Actual_FREQ1=1420.0000
# Actual_FREQ2=1420.0000
#    LO1Tuning=6870.000
#     RFFILTER=1355_1435
#        OBSBW=-15.6250
#        NCHAN=1024 
#        FOCUS=37.0709
#           RA=07:29:13.64
#          DEC=-17:46:55.66
#      RA(hrs)=7.487100
#     DEC(deg)=-17.782100
#    AZIM(deg)=154.143
#    ELEV(deg)=29.601
#     IFattens=10.00, 9.00
#      WARNING=None
#    TCAL_XL1=7.9635
#    TCAL_YR1=9.1340
#    TCAL_XL2=7.9635
#    TCAL_YR2=9.1340
#     TRX_XL1=11.7060
#     TRX_YR1=11.7060
#     TRX_XL2=11.7060
#     TRX_YR2=11.7060
#        TAVE=1.0000
#Freq1(MHz)          XL1          YR1  Freq2(MHz)          XL2          YR2 

   1427.81250     367.1564     289.0854   1427.81250     367.1564     289.0854
   1427.79724     366.8398     288.6809   1427.79724     366.8398     288.6809
   1427.78198     368.4715     289.6367   1427.78198     368.4715     289.6367
   1427.76672     370.0325     290.2041   1427.76672     370.0325     290.2041
   1427.75146     370.0349     290.9418   1427.75146     370.0349     290.9418
   1427.73621     370.4816     291.4200   1427.73621     370.4816     291.4200
   1427.72095     371.5706     292.1967   1427.72095     371.5706     292.1967
   1427.70569     372.5273     292.2691   1427.70569     372.5273     292.2691
   1427.69043     374.4402     293.3889   1427.69043     374.4402     293.3889
   1427.67517     375.2456     294.7329   1427.67517     375.2456     294.7329
   1427.65991     376.2591     295.7593   1427.65991     376.2591     295.7593
   1427.64465     377.2646     296.2850   1427.64465     377.2646     296.2850
   1427.62939     378.9788     297.1860   1427.62939     378.9788     297.1860
   1427.61414     380.5069     298.0427   1427.61414     380.5069     298.0427
   1427.59888     381.6725     298.8774   1427.59888     381.6725     298.8774
   1427.58362     382.8231     299.7410   1427.58362     382.8231     299.7410
   1427.56836     383.9900     301.4943   1427.56836     383.9900     301.4943
   1427.55310     385.7433     302.4114   1427.55310     385.7433     302.4114
   1427.53784     387.5785     303.4836   1427.53784     387.5785     303.4836
   1427.52258     388.7791     304.6652   1427.52258     388.7791     304.6652
   1427.50732     390.3801     306.1518   1427.50732     390.3801     306.1518
   1427.49207     391.9559     307.4689   1427.49207     391.9559     307.4689
   1427.47681     393.6812     308.5790   1427.47681     393.6812     308.5790
   1427.46155     395.4561     310.5820   1427.46155     395.4561     310.5820
   1427.44629     397.8869     311.5365   1427.44629     397.8869     311.5365
   1427.43103     399.1551     312.4051   1427.43103     399.1551     312.4051
   1427.41577     400.8053     314.1598   1427.41577     400.8053     314.1598
   1427.40051     403.3653     316.0845   1427.40051     403.3653     316.0845
   1427.38525     405.2854     317.1720   1427.38525     405.2854     317.1720
   1427.37000     407.6173     318.7416   1427.37000     407.6173     318.7416
   1427.35474     409.1856     321.2863   1427.35474     409.1856     321.2863
   1427.33948     411.3229     322.2211   1427.33948     411.3229     322.2211
   1427.32422     413.1120     324.1488   1427.32422     413.1120     324.1488
   1427.30896     416.0432     325.0924   1427.30896     416.0432     325.0924
   1427.29370     417.2126     327.3791   1427.29370     417.2126     327.3791
   1427.27844     419.7343     329.0059   1427.27844     419.7343     329.0059
   1427.26318     422.6897     330.5219   1427.26318     422.6897     330.5219
   1427.24792     425.0243     332.5211   1427.24792     425.0243     332.5211
   1427.23267     427.4676     334.0096   1427.23267     427.4676     334.0096
   1427.21741     429.5570     336.1710   1427.21741     429.5570     336.1710
   1427.20215     431.3559     337.6915   1427.20215     431.3559     337.6915
   1427.18689     434.4660     339.9217   1427.18689     434.4660     339.9217
   1427.17163     437.1611     341.4738   1427.17163     437.1611     341.4738
   1427.15637     439.5453     343.7585   1427.15637     439.5453     343.7585
   1427.14111     442.0107     345.8947   1427.14111     442.0107     345.8947
   1427.12585     444.7755     348.1101   1427.12585     444.7755     348.1101
   1427.11060     446.8509     349.9486   1427.11060     446.8509     349.9486
   1427.09534     450.1927     351.9138   1427.09534     450.1927     351.9138
   1427.08008     452.3849     354.1940   1427.08008     452.3849     354.1940
   1427.06482     455.8193     356.3669   1427.06482     455.8193     356.3669
   1427.04956     457.5788     358.2880   1427.04956     457.5788     358.2880
   1427.03430     460.1012     360.3155   1427.03430     460.1012     360.3155
   1427.01904     462.9208     362.8219   1427.01904     462.9208     362.8219
   1427.00378     465.4338     364.7939   1427.00378     465.4338     364.7939
   1426.98853     468.6786     366.9408   1426.98853     468.6786     366.9408
   1426.97327     471.9434     369.6186   1426.97327     471.9434     369.6186
   1426.95801     473.9280     371.5138   1426.95801     473.9280     371.5138
   1426.94275     477.2422     373.2876   1426.94275     477.2422     373.2876
   1426.92749     479.4275     375.9954   1426.92749     479.4275     375.9954
   1426.91223     481.8582     378.4612   1426.91223     481.8582     378.4612
   1426.89697     485.0029     380.7481   1426.89697     485.0029     380.7481
   1426.88171     489.0561     382.7630   1426.88171     489.0561     382.7630
   1426.86646     491.4576     385.2620   1426.86646     491.4576     385.2620
   1426.85120     493.9316     387.5031   1426.85120     493.9316     387.5031
   1426.83594     497.1624     390.0880   1426.83594     497.1624     390.0880
   1426.82068     499.5883     392.6597   1426.82068     499.5883     392.6597
   1426.80542     502.7582     395.3182   1426.80542     502.7582     395.3182
   1426.79016     505.8397     397.5568   1426.79016     505.8397     397.5568
   1426.77490     508.5365     399.9933   1426.77490     508.5365     399.9933
   1426.75964     511.3421     402.5122   1426.75964     511.3421     402.5122
   1426.74438     514.9708     404.5341   1426.74438     514.9708     404.5341
   1426.72913     517.0767     406.9642   1426.72913     517.0767     406.9642
   1426.71387     519.6529     409.7165   1426.71387     519.6529     409.7165
   1426.69861     523.5690     411.8774   1426.69861     523.5690     411.8774
   1426.68335     526.0259     414.6203   1426.68335     526.0259     414.6203
   1426.66809     528.9866     416.4066   1426.66809     528.9866     416.4066
   1426.65283     532.3147     420.0461   1426.65283     532.3147     420.0461
   1426.63757     534.2993     422.2391   1426.63757     534.2993     422.2391
   1426.62231     542.4069     426.6458   1426.62231     542.4069     426.6458
   1426.60706     540.8761     427.5372   1426.60706     540.8761     427.5372
   1426.59180     544.6796     429.1988   1426.59180     544.6796     429.1988
   1426.57654     547.2936     432.1549   1426.57654     547.2936     432.1549
   1426.56128     549.3061     435.0717   1426.56128     549.3061     435.0717
   1426.54602     552.2131     436.4567   1426.54602     552.2131     436.4567
   1426.53076     556.0131     439.8184   1426.53076     556.0131     439.8184
   1426.51550     557.6994     442.3516   1426.51550     557.6994     442.3516
   1426.50024     561.0270     444.4340   1426.50024     561.0270     444.4340
   1426.48499     564.4717     446.7209   1426.48499     564.4717     446.7209
   1426.46973     568.2364     449.5130   1426.46973     568.2364     449.5130
   1426.45447     570.1945     452.5190   1426.45447     570.1945     452.5190
   1426.43921     573.1061     455.4526   1426.43921     573.1061     455.4526
   1426.42395     575.3741     457.4430   1426.42395     575.3741     457.4430
   1426.40869     578.8255     459.8380   1426.40869     578.8255     459.8380
   1426.39343     581.4193     461.7471   1426.39343     581.4193     461.7471
   1426.37817     584.4232     464.8760   1426.37817     584.4232     464.8760
   1426.36292     587.4029     466.9165   1426.36292     587.4029     466.9165
   1426.34766     590.3031     469.6422   1426.34766     590.3031     469.6422
   1426.33240     592.6022     471.9852   1426.33240     592.6022     471.9852
   1426.31714     594.5911     475.2561   1426.31714     594.5911     475.2561
   1426.30188     597.4879     477.0623   1426.30188     597.4879     477.0623
   1426.28662     601.6889     480.0269   1426.28662     601.6889     480.0269
   1426.27136     603.4372     481.5659   1426.27136     603.4372     481.5659
   1426.25610     605.2419     484.1991   1426.25610     605.2419     484.1991
   1426.24084     608.1331     486.4444   1426.24084     608.1331     486.4444
   1426.22559     611.3079     489.3983   1426.22559     611.3079     489.3983
   1426.21033     613.7167     492.6805   1426.21033     613.7167     492.6805
   1426.19507     616.6542     493.5470   1426.19507     616.6542     493.5470
   1426.17981     618.3737     496.9090   1426.17981     618.3737     496.9090
   1426.16455     621.4716     498.9747   1426.16455     621.4716     498.9747
   1426.14929     624.6568     501.1866   1426.14929     624.6568     501.1866
   1426.13403     626.4131     504.2089   1426.13403     626.4131     504.2089
   1426.11877     628.6484     505.2328   1426.11877     628.6484     505.2328
   1426.10352     631.8187     509.0415   1426.10352     631.8187     509.0415
   1426.08826     633.7298     510.4432   1426.08826     633.7298     510.4432
   1426.07300     635.6498     512.5116   1426.07300     635.6498     512.5116
   1426.05774     638.6580     515.4456   1426.05774     638.6580     515.4456
   1426.04248     640.6707     518.5193   1426.04248     640.6707     518.5193
   1426.02722     642.8887     521.4149   1426.02722     642.8887     521.4149
   1426.01196     645.1705     522.9007   1426.01196     645.1705     522.9007
   1425.99670     647.7386     524.0670   1425.99670     647.7386     524.0670
   1425.98145     649.5804     526.9416   1425.98145     649.5804     526.9416
   1425.96619     652.4307     529.6350   1425.96619     652.4307     529.6350
   1425.95093     655.0937     532.2519   1425.95093     655.0937     532.2519
   1425.93567     656.5216     534.5751   1425.93567     656.5216     534.5751
   1425.92041     659.0766     536.4084   1425.92041     659.0766     536.4084
   1425.90515     661.5776     538.5717   1425.90515     661.5776     538.5717
   1425.88989     662.6833     540.6840   1425.88989     662.6833     540.6840
   1425.87463     664.3126     542.6129   1425.87463     664.3126     542.6129
   1425.85938     665.7950     544.3467   1425.85938     665.7950     544.3467
   1425.84412     668.3680     546.8447   1425.84412     668.3680     546.8447
   1425.82886     671.1895     549.2236   1425.82886     671.1895     549.2236
   1425.81360     671.7834     552.2385   1425.81360     671.7834     552.2385
   1425.79834     675.6151     554.1103   1425.79834     675.6151     554.1103
   1425.78308     676.3376     556.2994   1425.78308     676.3376     556.2994
   1425.76782     677.5201     557.8826   1425.76782     677.5201     557.8826
   1425.75256     680.6435     560.8215   1425.75256     680.6435     560.8215
   1425.73730     681.9550     562.1224   1425.73730     681.9550     562.1224
   1425.72205     682.9149     565.2462   1425.72205     682.9149     565.2462
   1425.70679     684.9910     566.3001   1425.70679     684.9910     566.3001
   1425.69153     686.7868     568.1505   1425.69153     686.7868     568.1505
   1425.67627     688.9196     571.0197   1425.67627     688.9196     571.0197
   1425.66101     689.7411     572.0122   1425.66101     689.7411     572.0122
   1425.64575     691.9653     574.0349   1425.64575     691.9653     574.0349
   1425.63049     694.1403     574.8907   1425.63049     694.1403     574.8907
   1425.61523     694.0784     578.1820   1425.61523     694.0784     578.1820
   1425.59998     696.0848     580.5017   1425.59998     696.0848     580.5017
   1425.58472     697.5367     582.1606   1425.58472     697.5367     582.1606
   1425.56946     698.8564     583.2943   1425.56946     698.8564     583.2943
   1425.55420     702.1957     585.9647   1425.55420     702.1957     585.9647
   1425.53894     703.3441     587.8117   1425.53894     703.3441     587.8117
   1425.52368     703.9034     590.0024   1425.52368     703.9034     590.0024
   1425.50842     705.6942     591.5656   1425.50842     705.6942     591.5656
   1425.49316     705.8817     593.9216   1425.49316     705.8817     593.9216
   1425.47791     707.6337     594.8004   1425.47791     707.6337     594.8004
   1425.46265     708.7026     597.2025   1425.46265     708.7026     597.2025
   1425.44739     710.0346     598.7081   1425.44739     710.0346     598.7081
   1425.43213     710.5553     601.3756   1425.43213     710.5553     601.3756
   1425.41687     712.5689     603.1758   1425.41687     712.5689     603.1758
   1425.40161     713.3550     604.5231   1425.40161     713.3550     604.5231
   1425.38635     715.4346     605.9101   1425.38635     715.4346     605.9101
   1425.37109     715.1205     608.3189   1425.37109     715.1205     608.3189
   1425.35583     716.3600     610.2701   1425.35583     716.3600     610.2701
   1425.34058     717.1374     610.3329   1425.34058     717.1374     610.3329
   1425.32532     718.8234     612.5593   1425.32532     718.8234     612.5593
   1425.31006     720.6993     613.8339   1425.31006     720.6993     613.8339
   1425.29480     720.2097     615.5612   1425.29480     720.2097     615.5612
   1425.27954     722.2370     617.7987   1425.27954     722.2370     617.7987
   1425.26428     722.5201     619.2698   1425.26428     722.5201     619.2698
   1425.24902     722.5031     620.5897   1425.24902     722.5031     620.5897
   1425.23376     724.0774     622.0582   1425.23376     724.0774     622.0582
   1425.21851     725.4571     622.8644   1425.21851     725.4571     622.8644
   1425.20325     725.4926     627.0953   1425.20325     725.4926     627.0953
   1425.18799     727.4980     627.4500   1425.18799     727.4980     627.4500
   1425.17273     728.5516     628.7347   1425.17273     728.5516     628.7347
   1425.15747     726.9032     629.6770   1425.15747     726.9032     629.6770
   1425.14221     728.2579     632.2875   1425.14221     728.2579     632.2875
   1425.12695     729.2816     632.6149   1425.12695     729.2816     632.6149
   1425.11169     730.5035     634.7250   1425.11169     730.5035     634.7250
   1425.09644     729.6706     635.7907   1425.09644     729.6706     635.7907
   1425.08118     730.9092     637.3246   1425.08118     730.9092     637.3246
   1425.06592     731.0699     638.3191   1425.06592     731.0699     638.3191
   1425.05066     731.8651     640.0867   1425.05066     731.8651     640.0867
   1425.03540     731.9190     641.6360   1425.03540     731.9190     641.6360
   1425.02014     732.6633     642.5971   1425.02014     732.6633     642.5971
   1425.00488     732.8446     644.1555   1425.00488     732.8446     644.1555
   1424.98962     734.7031     645.7648   1424.98962     734.7031     645.7648
   1424.97437     734.1725     646.6562   1424.97437     734.1725     646.6562
   1424.95911     735.6094     648.5507   1424.95911     735.6094     648.5507
   1424.94385     735.7074     649.1580   1424.94385     735.7074     649.1580
   1424.92859     735.8078     649.4188   1424.92859     735.8078     649.4188
   1424.91333     736.1550     651.7734   1424.91333     736.1550     651.7734
   1424.89807     737.1209     652.9312   1424.89807     737.1209     652.9312
   1424.88281     736.4478     654.3437   1424.88281     736.4478     654.3437
   1424.86755     737.9788     656.2886   1424.86755     737.9788     656.2886
   1424.85229     735.9289     656.4730   1424.85229     735.9289     656.4730
   1424.83704     737.3184     657.1604   1424.83704     737.3184     657.1604
   1424.82178     737.9568     658.9738   1424.82178     737.9568     658.9738
   1424.80652     737.3238     659.6112   1424.80652     737.3238     659.6112
   1424.79126     738.6213     659.8625   1424.79126     738.6213     659.8625
   1424.77600     738.6024     661.9495   1424.77600     738.6024     661.9495
   1424.76074     738.5114     662.8338   1424.76074     738.5114     662.8338
   1424.74548     738.4920     663.9727   1424.74548     738.4920     663.9727
   1424.73022     739.4909     664.3094   1424.73022     739.4909     664.3094
   1424.71497     739.0928     665.5198   1424.71497     739.0928     665.5198
   1424.69971     738.9500     666.4501   1424.69971     738.9500     666.4501
   1424.68445     738.9473     667.8552   1424.68445     738.9473     667.8552
   1424.66919     739.9318     669.1586   1424.66919     739.9318     669.1586
   1424.65393     739.2220     669.9384   1424.65393     739.2220     669.9384
   1424.63867     739.3995     671.5707   1424.63867     739.3995     671.5707
   1424.62341     740.6544     670.7565   1424.62341     740.6544     670.7565
   1424.60815     740.5208     673.3403   1424.60815     740.5208     673.3403
   1424.59290     739.4050     673.7350   1424.59290     739.4050     673.7350
   1424.57764     739.6455     674.8605   1424.57764     739.6455     674.8605
   1424.56238     739.4373     675.2844   1424.56238     739.4373     675.2844
   1424.54712     739.8995     675.8282   1424.54712     739.8995     675.8282
   1424.53186     739.4829     675.9355   1424.53186     739.4829     675.9355
   1424.51660     739.4007     677.4561   1424.51660     739.4007     677.4561
   1424.50134     739.5588     677.6896   1424.50134     739.5588     677.6896
   1424.48608     739.2786     677.7440   1424.48608     739.2786     677.7440
   1424.47083     738.8989     680.2368   1424.47083     738.8989     680.2368
   1424.45557     738.9044     679.6687   1424.45557     738.9044     679.6687
   1424.44031     739.6083     680.2772   1424.44031     739.6083     680.2772
   1424.42505     740.1746     681.5587   1424.42505     740.1746     681.5587
   1424.40979     739.5534     682.2972   1424.40979     739.5534     682.2972
   1424.39453     739.0714     683.6996   1424.39453     739.0714     683.6996
   1424.37927     738.9540     683.4846   1424.37927     738.9540     683.4846
   1424.36401     738.9508     684.4086   1424.36401     738.9508     684.4086
   1424.34875     739.0184     685.2638   1424.34875     739.0184     685.2638
   1424.33350     738.7699     686.0425   1424.33350     738.7699     686.0425
   1424.31824     739.3887     685.8801   1424.31824     739.3887     685.8801
   1424.30298     739.0031     687.4424   1424.30298     739.0031     687.4424
   1424.28772     739.0452     687.0585   1424.28772     739.0452     687.0585
   1424.27246     738.0878     687.1859   1424.27246     738.0878     687.1859
   1424.25720     737.7823     687.6174   1424.25720     737.7823     687.6174
   1424.24194     737.3036     688.1934   1424.24194     737.3036     688.1934
   1424.22668     737.5098     689.9714   1424.22668     737.5098     689.9714
   1424.21143     736.7902     688.8811   1424.21143     736.7902     688.8811
   1424.19617     736.7723     688.8782   1424.19617     736.7723     688.8782
   1424.18091     736.6285     688.8480   1424.18091     736.6285     688.8480
   1424.16565     736.5892     689.4858   1424.16565     736.5892     689.4858
