#     FILENAME=!Skynet_57528_lach-cc-204_20609_21055.cyb.fits
#     BASENAME=Skynet_57528_lach-cc-204_20609_21055
#     SRC_NAME=lach-cc-204
#     OBSERVER=ccmadison16_9505
#     DATE_OBS=2016-05-20T20:26:51.680
#        OBSID=20609
#      SCANNUM=21055
#          MJD=57528.8530
#          UTC=73701
#     SCANTYPE=track
#     DATAMODE=HIRES
#     TUNEFREQ=1420.0000
# Actual_FREQ1=1420.0000
# Actual_FREQ2=1420.0000
#    LO1Tuning=6870.000
#     RFFILTER=1355_1435
#        OBSBW=-15.6250
#        NCHAN=1024 
#        FOCUS=37.0709
#           RA=06:35:00.09
#          DEC=07:56:33.26
#      RA(hrs)=6.583400
#     DEC(deg)=7.942600
#    AZIM(deg)=192.643
#    ELEV(deg)=58.748
#     IFattens=10.00, 9.00
#      WARNING=None
#    TCAL_XL1=7.9635
#    TCAL_YR1=9.1340
#    TCAL_XL2=7.9635
#    TCAL_YR2=9.1340
#     TRX_XL1=11.7060
#     TRX_YR1=11.7060
#     TRX_XL2=11.7060
#     TRX_YR2=11.7060
#        TAVE=1.0000
#Freq1(MHz)          XL1          YR1  Freq2(MHz)          XL2          YR2 

   1427.81250     365.2271     270.4620   1427.81250     365.2271     270.4620
   1427.79724     365.7740     271.0268   1427.79724     365.7740     271.0268
   1427.78198     366.4270     271.5049   1427.78198     366.4270     271.5049
   1427.76672     367.2558     272.7915   1427.76672     367.2558     272.7915
   1427.75146     367.5234     273.2672   1427.75146     367.5234     273.2672
   1427.73621     368.8807     274.2576   1427.73621     368.8807     274.2576
   1427.72095     369.9954     275.1708   1427.72095     369.9954     275.1708
   1427.70569     370.6672     275.7016   1427.70569     370.6672     275.7016
   1427.69043     371.3175     276.3917   1427.69043     371.3175     276.3917
   1427.67517     372.1707     277.8260   1427.67517     372.1707     277.8260
   1427.65991     373.8911     279.5918   1427.65991     373.8911     279.5918
   1427.64465     374.7046     280.3648   1427.64465     374.7046     280.3648
   1427.62939     375.8007     281.6385   1427.62939     375.8007     281.6385
   1427.61414     377.1065     282.9540   1427.61414     377.1065     282.9540
   1427.59888     378.4767     284.3872   1427.59888     378.4767     284.3872
   1427.58362     379.5938     285.1689   1427.58362     379.5938     285.1689
   1427.56836     380.5940     286.6421   1427.56836     380.5940     286.6421
   1427.55310     382.3773     287.9498   1427.55310     382.3773     287.9498
   1427.53784     383.8848     289.6502   1427.53784     383.8848     289.6502
   1427.52258     385.2820     290.9344   1427.52258     385.2820     290.9344
   1427.50732     386.8391     292.5656   1427.50732     386.8391     292.5656
   1427.49207     388.9034     294.1186   1427.49207     388.9034     294.1186
   1427.47681     389.7142     295.7213   1427.47681     389.7142     295.7213
   1427.46155     392.2444     297.6396   1427.46155     392.2444     297.6396
   1427.44629     393.2910     298.5623   1427.44629     393.2910     298.5623
   1427.43103     394.7331     300.0336   1427.43103     394.7331     300.0336
   1427.41577     397.4453     301.8504   1427.41577     397.4453     301.8504
   1427.40051     399.5170     304.0672   1427.40051     399.5170     304.0672
   1427.38525     400.4631     305.5654   1427.38525     400.4631     305.5654
   1427.37000     403.1594     306.9066   1427.37000     403.1594     306.9066
   1427.35474     403.7421     308.5582   1427.35474     403.7421     308.5582
   1427.33948     407.2612     310.7887   1427.33948     407.2612     310.7887
   1427.32422     409.2369     312.7417   1427.32422     409.2369     312.7417
   1427.30896     411.0911     314.4715   1427.30896     411.0911     314.4715
   1427.29370     413.0914     316.9213   1427.29370     413.0914     316.9213
   1427.27844     415.2872     318.9641   1427.27844     415.2872     318.9641
   1427.26318     418.1062     320.8893   1427.26318     418.1062     320.8893
   1427.24792     419.6875     322.7539   1427.24792     419.6875     322.7539
   1427.23267     421.7299     324.8225   1427.23267     421.7299     324.8225
   1427.21741     424.4623     327.0771   1427.21741     424.4623     327.0771
   1427.20215     427.6305     328.4728   1427.20215     427.6305     328.4728
   1427.18689     429.5775     331.7004   1427.18689     429.5775     331.7004
   1427.17163     431.5373     333.0925   1427.17163     431.5373     333.0925
   1427.15637     434.2037     335.6146   1427.15637     434.2037     335.6146
   1427.14111     436.3726     337.6657   1427.14111     436.3726     337.6657
   1427.12585     439.2727     339.7931   1427.12585     439.2727     339.7931
   1427.11060     441.9781     342.6143   1427.11060     441.9781     342.6143
   1427.09534     444.5525     344.9767   1427.09534     444.5525     344.9767
   1427.08008     446.6374     347.4901   1427.08008     446.6374     347.4901
   1427.06482     449.9499     349.6358   1427.06482     449.9499     349.6358
   1427.04956     452.9080     351.7761   1427.04956     452.9080     351.7761
   1427.03430     454.4785     354.6158   1427.03430     454.4785     354.6158
   1427.01904     457.6733     356.8006   1427.01904     457.6733     356.8006
   1427.00378     459.8391     358.9840   1427.00378     459.8391     358.9840
   1426.98853     463.2553     361.4503   1426.98853     463.2553     361.4503
   1426.97327     465.6586     363.9578   1426.97327     465.6586     363.9578
   1426.95801     468.7448     366.0330   1426.95801     468.7448     366.0330
   1426.94275     471.8099     368.7010   1426.94275     471.8099     368.7010
   1426.92749     473.0821     370.3004   1426.92749     473.0821     370.3004
   1426.91223     476.8055     373.6801   1426.91223     476.8055     373.6801
   1426.89697     480.0615     376.8365   1426.89697     480.0615     376.8365
   1426.88171     482.7491     379.1791   1426.88171     482.7491     379.1791
   1426.86646     486.2580     381.6668   1426.86646     486.2580     381.6668
   1426.85120     489.1399     383.7461   1426.85120     489.1399     383.7461
   1426.83594     491.1172     386.7151   1426.83594     491.1172     386.7151
   1426.82068     494.3535     389.5873   1426.82068     494.3535     389.5873
   1426.80542     497.0283     391.7320   1426.80542     497.0283     391.7320
   1426.79016     499.9397     394.9797   1426.79016     499.9397     394.9797
   1426.77490     503.6607     397.4323   1426.77490     503.6607     397.4323
   1426.75964     506.3623     399.5540   1426.75964     506.3623     399.5540
   1426.74438     508.8716     402.6792   1426.74438     508.8716     402.6792
   1426.72913     512.4617     405.2077   1426.72913     512.4617     405.2077
   1426.71387     515.2418     407.5545   1426.71387     515.2418     407.5545
   1426.69861     518.0412     410.5513   1426.69861     518.0412     410.5513
   1426.68335     521.6149     413.7021   1426.68335     521.6149     413.7021
   1426.66809     523.6116     415.5502   1426.66809     523.6116     415.5502
   1426.65283     527.1094     418.1861   1426.65283     527.1094     418.1861
   1426.63757     529.8517     421.5662   1426.63757     529.8517     421.5662
   1426.62231     533.7838     434.5186   1426.62231     533.7838     434.5186
   1426.60706     535.8437     427.3079   1426.60706     535.8437     427.3079
   1426.59180     538.7003     429.0534   1426.59180     538.7003     429.0534
   1426.57654     541.6531     431.6253   1426.57654     541.6531     431.6253
   1426.56128     545.2047     434.5804   1426.56128     545.2047     434.5804
   1426.54602     547.1638     437.1486   1426.54602     547.1638     437.1486
   1426.53076     550.5028     441.2604   1426.53076     550.5028     441.2604
   1426.51550     553.7351     443.0128   1426.51550     553.7351     443.0128
   1426.50024     556.8926     445.9491   1426.50024     556.8926     445.9491
   1426.48499     559.2496     448.1592   1426.48499     559.2496     448.1592
   1426.46973     562.1650     450.2489   1426.46973     562.1650     450.2489
   1426.45447     565.1718     453.8169   1426.45447     565.1718     453.8169
   1426.43921     568.4148     456.7139   1426.43921     568.4148     456.7139
   1426.42395     571.3612     459.1096   1426.42395     571.3612     459.1096
   1426.40869     574.3013     461.7238   1426.40869     574.3013     461.7238
   1426.39343     577.0753     464.0096   1426.39343     577.0753     464.0096
   1426.37817     579.0377     467.5786   1426.37817     579.0377     467.5786
   1426.36292     582.4354     469.3404   1426.36292     582.4354     469.3404
   1426.34766     585.7948     471.6296   1426.34766     585.7948     471.6296
   1426.33240     588.5065     474.1487   1426.33240     588.5065     474.1487
   1426.31714     590.8043     477.1149   1426.31714     590.8043     477.1149
   1426.30188     593.4323     479.4782   1426.30188     593.4323     479.4782
   1426.28662     596.4708     481.9955   1426.28662     596.4708     481.9955
   1426.27136     599.5817     484.4295   1426.27136     599.5817     484.4295
   1426.25610     601.4175     486.9534   1426.25610     601.4175     486.9534
   1426.24084     604.5638     489.6719   1426.24084     604.5638     489.6719
   1426.22559     607.9238     491.7818   1426.22559     607.9238     491.7818
   1426.21033     610.4329     494.5406   1426.21033     610.4329     494.5406
   1426.19507     613.5753     497.9500   1426.19507     613.5753     497.9500
   1426.17981     614.8412     500.1320   1426.17981     614.8412     500.1320
   1426.16455     618.0691     502.0871   1426.16455     618.0691     502.0871
   1426.14929     619.8011     504.7423   1426.14929     619.8011     504.7423
   1426.13403     623.4778     508.0408   1426.13403     623.4778     508.0408
   1426.11877     625.5840     509.9738   1426.11877     625.5840     509.9738
   1426.10352     627.1339     511.9025   1426.10352     627.1339     511.9025
   1426.08826     630.0432     514.7914   1426.08826     630.0432     514.7914
   1426.07300     632.5326     516.8410   1426.07300     632.5326     516.8410
   1426.05774     635.0451     519.5020   1426.05774     635.0451     519.5020
   1426.04248     639.1487     521.3817   1426.04248     639.1487     521.3817
   1426.02722     640.0688     523.8159   1426.02722     640.0688     523.8159
   1426.01196     641.9809     526.4875   1426.01196     641.9809     526.4875
   1425.99670     644.3713     528.8192   1425.99670     644.3713     528.8192
   1425.98145     646.8083     530.5734   1425.98145     646.8083     530.5734
   1425.96619     649.2272     532.3084   1425.96619     649.2272     532.3084
   1425.95093     651.6592     534.5394   1425.95093     651.6592     534.5394
   1425.93567     653.5341     537.3851   1425.93567     653.5341     537.3851
   1425.92041     655.3181     539.6996   1425.92041     655.3181     539.6996
   1425.90515     658.4706     541.4700   1425.90515     658.4706     541.4700
   1425.88989     660.3415     543.6364   1425.88989     660.3415     543.6364
   1425.87463     661.8185     546.1630   1425.87463     661.8185     546.1630
   1425.85938     665.1038     548.2173   1425.85938     665.1038     548.2173
   1425.84412     665.3771     550.0417   1425.84412     665.3771     550.0417
   1425.82886     668.4858     552.3129   1425.82886     668.4858     552.3129
   1425.81360     669.7825     554.3178   1425.81360     669.7825     554.3178
   1425.79834     672.3192     557.2026   1425.79834     672.3192     557.2026
   1425.78308     673.8183     558.4066   1425.78308     673.8183     558.4066
   1425.76782     676.6780     559.7437   1425.76782     676.6780     559.7437
   1425.75256     677.5485     563.3220   1425.75256     677.5485     563.3220
   1425.73730     679.0961     564.3952   1425.73730     679.0961     564.3952
   1425.72205     679.9313     566.0818   1425.72205     679.9313     566.0818
   1425.70679     684.8764     568.0316   1425.70679     684.8764     568.0316
   1425.69153     684.8484     570.5240   1425.69153     684.8484     570.5240
   1425.67627     686.6071     571.8169   1425.67627     686.6071     571.8169
   1425.66101     689.0888     572.9099   1425.66101     689.0888     572.9099
   1425.64575     689.7739     575.0668   1425.64575     689.7739     575.0668
   1425.63049     692.2946     577.4233   1425.63049     692.2946     577.4233
   1425.61523     693.0867     578.0768   1425.61523     693.0867     578.0768
   1425.59998     694.3446     580.1804   1425.59998     694.3446     580.1804
   1425.58472     695.7111     582.0634   1425.58472     695.7111     582.0634
   1425.56946     696.3325     583.2155   1425.56946     696.3325     583.2155
   1425.55420     698.9962     586.0224   1425.55420     698.9962     586.0224
   1425.53894     700.9197     586.4662   1425.53894     700.9197     586.4662
   1425.52368     701.1865     589.4775   1425.52368     701.1865     589.4775
   1425.50842     702.4341     590.4424   1425.50842     702.4341     590.4424
   1425.49316     705.4858     591.5935   1425.49316     705.4858     591.5935
   1425.47791     705.3201     593.1972   1425.47791     705.3201     593.1972
   1425.46265     706.9818     594.7468   1425.46265     706.9818     594.7468
   1425.44739     707.9872     596.4301   1425.44739     707.9872     596.4301
   1425.43213     709.2554     597.3875   1425.43213     709.2554     597.3875
   1425.41687     711.0548     601.1075   1425.41687     711.0548     601.1075
   1425.40161     712.5927     599.7869   1425.40161     712.5927     599.7869
   1425.38635     713.8264     601.9178   1425.38635     713.8264     601.9178
   1425.37109     714.1334     602.5351   1425.37109     714.1334     602.5351
   1425.35583     713.6620     604.6932   1425.35583     713.6620     604.6932
   1425.34058     716.4700     606.2340   1425.34058     716.4700     606.2340
   1425.32532     716.6995     606.9811   1425.32532     716.6995     606.9811
   1425.31006     716.3505     608.9321   1425.31006     716.3505     608.9321
   1425.29480     719.6129     609.0649   1425.29480     719.6129     609.0649
   1425.27954     719.8148     610.9518   1425.27954     719.8148     610.9518
   1425.26428     720.9559     612.4795   1425.26428     720.9559     612.4795
   1425.24902     722.1556     613.0743   1425.24902     722.1556     613.0743
   1425.23376     722.0980     614.4695   1425.23376     722.0980     614.4695
   1425.21851     723.6801     615.1152   1425.21851     723.6801     615.1152
   1425.20325     723.9238     616.0266   1425.20325     723.9238     616.0266
   1425.18799     724.5615     617.3896   1425.18799     724.5615     617.3896
   1425.17273     725.0555     619.1057   1425.17273     725.0555     619.1057
   1425.15747     725.8144     620.0312   1425.15747     725.8144     620.0312
   1425.14221     726.4346     621.2288   1425.14221     726.4346     621.2288
   1425.12695     727.4551     621.7835   1425.12695     727.4551     621.7835
   1425.11169     728.0815     623.5734   1425.11169     728.0815     623.5734
   1425.09644     728.9963     622.8250   1425.09644     728.9963     622.8250
   1425.08118     730.0682     623.7820   1425.08118     730.0682     623.7820
   1425.06592     729.3969     625.3409   1425.06592     729.3969     625.3409
   1425.05066     730.8423     626.9005   1425.05066     730.8423     626.9005
   1425.03540     730.5380     627.5579   1425.03540     730.5380     627.5579
   1425.02014     731.9329     628.0555   1425.02014     731.9329     628.0555
   1425.00488     730.9531     628.4477   1425.00488     730.9531     628.4477
   1424.98962     733.0442     629.0131   1424.98962     733.0442     629.0131
   1424.97437     733.2354     629.0147   1424.97437     733.2354     629.0147
   1424.95911     732.0187     631.7701   1424.95911     732.0187     631.7701
   1424.94385     734.7864     630.8910   1424.94385     734.7864     630.8910
   1424.92859     734.5809     632.2700   1424.92859     734.5809     632.2700
   1424.91333     734.0822     634.0103   1424.91333     734.0822     634.0103
   1424.89807     734.8375     634.5920   1424.89807     734.8375     634.5920
   1424.88281     734.8011     635.0687   1424.88281     734.8011     635.0687
   1424.86755     735.6213     633.9166   1424.86755     735.6213     633.9166
   1424.85229     734.4639     635.8944   1424.85229     734.4639     635.8944
   1424.83704     735.9435     636.0751   1424.83704     735.9435     636.0751
   1424.82178     736.5241     637.1447   1424.82178     736.5241     637.1447
   1424.80652     736.9432     638.0234   1424.80652     736.9432     638.0234
   1424.79126     735.9733     637.9645   1424.79126     735.9733     637.9645
   1424.77600     735.8178     638.1749   1424.77600     735.8178     638.1749
   1424.76074     737.4214     637.2524   1424.76074     737.4214     637.2524
   1424.74548     735.2173     639.4730   1424.74548     735.2173     639.4730
   1424.73022     737.3359     638.9523   1424.73022     737.3359     638.9523
   1424.71497     736.8109     639.2528   1424.71497     736.8109     639.2528
   1424.69971     737.3260     639.8091   1424.69971     737.3260     639.8091
   1424.68445     736.2561     640.2855   1424.68445     736.2561     640.2855
   1424.66919     736.2928     640.8172   1424.66919     736.2928     640.8172
   1424.65393     736.5391     640.9129   1424.65393     736.5391     640.9129
   1424.63867     736.2517     641.6646   1424.63867     736.2517     641.6646
   1424.62341     737.3381     642.7703   1424.62341     737.3381     642.7703
   1424.60815     736.1919     642.2925   1424.60815     736.1919     642.2925
   1424.59290     736.4662     642.6014   1424.59290     736.4662     642.6014
   1424.57764     736.6108     642.1466   1424.57764     736.6108     642.1466
   1424.56238     737.0082     643.4748   1424.56238     737.0082     643.4748
   1424.54712     735.9823     643.8835   1424.54712     735.9823     643.8835
   1424.53186     737.3043     643.1694   1424.53186     737.3043     643.1694
   1424.51660     736.4578     644.0263   1424.51660     736.4578     644.0263
   1424.50134     738.0595     644.0699   1424.50134     738.0595     644.0699
   1424.48608     736.8389     644.0930   1424.48608     736.8389     644.0930
   1424.47083     736.6415     643.5543   1424.47083     736.6415     643.5543
   1424.45557     735.1791     643.9019   1424.45557     735.1791     643.9019
   1424.44031     735.2605     645.1215   1424.44031     735.2605     645.1215
   1424.42505     735.1637     643.8173   1424.42505     735.1637     643.8173
   1424.40979     735.6110     643.2189   1424.40979     735.6110     643.2189
   1424.39453     735.3418     643.8073   1424.39453     735.3418     643.8073
   1424.37927     735.6490     644.2067   1424.37927     735.6490     644.2067
   1424.36401     734.1852     643.8132   1424.36401     734.1852     643.8132
   1424.34875     733.9977     644.0859   1424.34875     733.9977     644.0859
   1424.33350     735.2551     642.7966   1424.33350     735.2551     642.7966
   1424.31824     734.8829     644.4490   1424.31824     734.8829     644.4490
   1424.30298     733.5418     644.3615   1424.30298     733.5418     644.3615
   1424.28772     734.5211     643.9131   1424.28772     734.5211     643.9131
   1424.27246     733.8444     643.8336   1424.27246     733.8444     643.8336
   1424.25720     732.6387     643.2808   1424.25720     732.6387     643.2808
   1424.24194     733.8696     643.1671   1424.24194     733.8696     643.1671
   1424.22668     732.3859     643.6259   1424.22668     732.3859     643.6259
   1424.21143     732.6494     643.1959   1424.21143     732.6494     643.1959
   1424.19617     733.2958     642.3613   1424.19617     733.2958     642.3613
   1424.18091     731.6070     643.7279   1424.18091     731.6070     643.7279
   1424.16565     731.1989     643.5309   1424.16565     731.1989     643.5309
