#     FILENAME=!Skynet_57528_lach-cc-82_20523_20928.cyb.fits
#     BASENAME=Skynet_57528_lach-cc-82_20523_20928
#     SRC_NAME=lach-cc-82
#     OBSERVER=ccmadison16_9505
#     DATE_OBS=2016-05-20T16:05:37.930
#        OBSID=20523
#      SCANNUM=20928
#          MJD=57528.6716
#          UTC=58027
#     SCANTYPE=track
#     DATAMODE=HIRES
#     TUNEFREQ=1420.0000
# Actual_FREQ1=1420.0000
# Actual_FREQ2=1420.0000
#    LO1Tuning=6870.000
#     RFFILTER=1355_1435
#        OBSBW=-15.6250
#        NCHAN=1024 
#        FOCUS=37.0709
#           RA=20:42:20.17
#          DEC=42:15:05.59
#      RA(hrs)=20.705600
#     DEC(deg)=42.251600
#    AZIM(deg)=304.793
#    ELEV(deg)=24.875
#     IFattens=12.00, 11.00
#      WARNING=None
#    TCAL_XL1=7.9635
#    TCAL_YR1=9.1340
#    TCAL_XL2=7.9635
#    TCAL_YR2=9.1340
#     TRX_XL1=11.7060
#     TRX_YR1=11.7060
#     TRX_XL2=11.7060
#     TRX_YR2=11.7060
#        TAVE=1.0000
#Freq1(MHz)          XL1          YR1  Freq2(MHz)          XL2          YR2 

   1427.81250     328.9125     272.4908   1427.81250     328.9125     272.4908
   1427.79724     329.0570     273.3050   1427.79724     329.0570     273.3050
   1427.78198     330.0325     273.8637   1427.78198     330.0325     273.8637
   1427.76672     330.2673     274.5728   1427.76672     330.2673     274.5728
   1427.75146     330.9716     275.2945   1427.75146     330.9716     275.2945
   1427.73621     331.7543     275.8493   1427.73621     331.7543     275.8493
   1427.72095     332.7997     276.2408   1427.72095     332.7997     276.2408
   1427.70569     332.6637     277.4989   1427.70569     332.6637     277.4989
   1427.69043     333.9888     278.0253   1427.69043     333.9888     278.0253
   1427.67517     334.6580     278.5330   1427.67517     334.6580     278.5330
   1427.65991     335.8340     279.5210   1427.65991     335.8340     279.5210
   1427.64465     337.3418     280.2489   1427.64465     337.3418     280.2489
   1427.62939     337.3802     281.9898   1427.62939     337.3802     281.9898
   1427.61414     339.0711     282.4831   1427.61414     339.0711     282.4831
   1427.59888     339.8864     283.4392   1427.59888     339.8864     283.4392
   1427.58362     340.7710     284.3293   1427.58362     340.7710     284.3293
   1427.56836     341.8542     285.9874   1427.56836     341.8542     285.9874
   1427.55310     343.6747     287.1218   1427.55310     343.6747     287.1218
   1427.53784     344.7313     288.1750   1427.53784     344.7313     288.1750
   1427.52258     346.0139     289.5278   1427.52258     346.0139     289.5278
   1427.50732     347.9824     290.6633   1427.50732     347.9824     290.6633
   1427.49207     348.3902     292.0652   1427.49207     348.3902     292.0652
   1427.47681     350.3183     293.3055   1427.47681     350.3183     293.3055
   1427.46155     351.7003     294.4447   1427.46155     351.7003     294.4447
   1427.44629     353.3157     295.6868   1427.44629     353.3157     295.6868
   1427.43103     354.5612     297.6621   1427.43103     354.5612     297.6621
   1427.41577     356.3917     299.0033   1427.41577     356.3917     299.0033
   1427.40051     358.2615     300.7606   1427.40051     358.2615     300.7606
   1427.38525     359.4943     302.1455   1427.38525     359.4943     302.1455
   1427.37000     361.3840     303.9128   1427.37000     361.3840     303.9128
   1427.35474     363.0277     305.1076   1427.35474     363.0277     305.1076
   1427.33948     364.3520     306.8372   1427.33948     364.3520     306.8372
   1427.32422     366.4265     308.5238   1427.32422     366.4265     308.5238
   1427.30896     369.0920     310.3683   1427.30896     369.0920     310.3683
   1427.29370     370.2304     311.8543   1427.29370     370.2304     311.8543
   1427.27844     372.3199     313.3779   1427.27844     372.3199     313.3779
   1427.26318     374.7061     315.3459   1427.26318     374.7061     315.3459
   1427.24792     376.0842     316.9438   1427.24792     376.0842     316.9438
   1427.23267     378.6538     319.2839   1427.23267     378.6538     319.2839
   1427.21741     380.4352     321.1518   1427.21741     380.4352     321.1518
   1427.20215     382.5981     322.7427   1427.20215     382.5981     322.7427
   1427.18689     384.3865     324.5916   1427.18689     384.3865     324.5916
   1427.17163     387.0345     326.5906   1427.17163     387.0345     326.5906
   1427.15637     389.3547     328.6480   1427.15637     389.3547     328.6480
   1427.14111     390.1260     330.1353   1427.14111     390.1260     330.1353
   1427.12585     393.2031     331.9839   1427.12585     393.2031     331.9839
   1427.11060     395.7043     334.2848   1427.11060     395.7043     334.2848
   1427.09534     397.4726     336.3167   1427.09534     397.4726     336.3167
   1427.08008     399.9165     338.2539   1427.08008     399.9165     338.2539
   1427.06482     402.5667     340.4172   1427.06482     402.5667     340.4172
   1427.04956     405.5625     342.5403   1427.04956     405.5625     342.5403
   1427.03430     407.6558     344.7600   1427.03430     407.6558     344.7600
   1427.01904     409.5288     346.8955   1427.01904     409.5288     346.8955
   1427.00378     412.2209     349.0828   1427.00378     412.2209     349.0828
   1426.98853     414.7294     350.8982   1426.98853     414.7294     350.8982
   1426.97327     416.9432     353.3069   1426.97327     416.9432     353.3069
   1426.95801     419.0546     355.2372   1426.95801     419.0546     355.2372
   1426.94275     421.8156     357.7182   1426.94275     421.8156     357.7182
   1426.92749     424.0605     359.9345   1426.92749     424.0605     359.9345
   1426.91223     426.2197     361.9207   1426.91223     426.2197     361.9207
   1426.89697     428.7245     364.1300   1426.89697     428.7245     364.1300
   1426.88171     431.4016     366.1096   1426.88171     431.4016     366.1096
   1426.86646     434.0627     368.2773   1426.86646     434.0627     368.2773
   1426.85120     437.7473     370.8425   1426.85120     437.7473     370.8425
   1426.83594     439.6164     372.8488   1426.83594     439.6164     372.8488
   1426.82068     442.3099     375.4340   1426.82068     442.3099     375.4340
   1426.80542     444.6682     377.7187   1426.80542     444.6682     377.7187
   1426.79016     447.4331     379.7582   1426.79016     447.4331     379.7582
   1426.77490     449.9550     381.5129   1426.77490     449.9550     381.5129
   1426.75964     452.7584     383.5317   1426.75964     452.7584     383.5317
   1426.74438     455.0643     386.4168   1426.74438     455.0643     386.4168
   1426.72913     457.8033     389.0027   1426.72913     457.8033     389.0027
   1426.71387     460.0045     391.3485   1426.71387     460.0045     391.3485
   1426.69861     462.1549     392.8374   1426.69861     462.1549     392.8374
   1426.68335     465.1760     395.0956   1426.68335     465.1760     395.0956
   1426.66809     467.7044     397.8191   1426.66809     467.7044     397.8191
   1426.65283     470.9750     400.0556   1426.65283     470.9750     400.0556
   1426.63757     473.4302     401.8180   1426.63757     473.4302     401.8180
   1426.62231     477.7224     405.7028   1426.62231     477.7224     405.7028
   1426.60706     478.3705     406.7784   1426.60706     478.3705     406.7784
   1426.59180     482.3636     408.8116   1426.59180     482.3636     408.8116
   1426.57654     483.8893     410.7430   1426.57654     483.8893     410.7430
   1426.56128     486.1526     413.2247   1426.56128     486.1526     413.2247
   1426.54602     488.0758     415.2738   1426.54602     488.0758     415.2738
   1426.53076     491.2301     417.6954   1426.53076     491.2301     417.6954
   1426.51550     493.7636     420.1526   1426.51550     493.7636     420.1526
   1426.50024     496.5061     422.3899   1426.50024     496.5061     422.3899
   1426.48499     499.4810     424.3020   1426.48499     499.4810     424.3020
   1426.46973     502.1570     426.0699   1426.46973     502.1570     426.0699
   1426.45447     504.3096     428.5798   1426.45447     504.3096     428.5798
   1426.43921     506.6844     430.2856   1426.43921     506.6844     430.2856
   1426.42395     509.7285     431.9077   1426.42395     509.7285     431.9077
   1426.40869     511.4429     434.1648   1426.40869     511.4429     434.1648
   1426.39343     514.4383     435.9576   1426.39343     514.4383     435.9576
   1426.37817     517.0457     439.1877   1426.37817     517.0457     439.1877
   1426.36292     520.2234     440.4777   1426.36292     520.2234     440.4777
   1426.34766     522.5468     443.7576   1426.34766     522.5468     443.7576
   1426.33240     525.0295     444.0119   1426.33240     525.0295     444.0119
   1426.31714     526.7719     446.3933   1426.31714     526.7719     446.3933
   1426.30188     529.7620     448.9402   1426.30188     529.7620     448.9402
   1426.28662     531.7594     450.9979   1426.28662     531.7594     450.9979
   1426.27136     533.9705     453.7601   1426.27136     533.9705     453.7601
   1426.25610     536.2562     454.7142   1426.25610     536.2562     454.7142
   1426.24084     539.2294     457.4091   1426.24084     539.2294     457.4091
   1426.22559     540.4734     459.2410   1426.22559     540.4734     459.2410
   1426.21033     543.3406     461.3552   1426.21033     543.3406     461.3552
   1426.19507     546.5623     463.1298   1426.19507     546.5623     463.1298
   1426.17981     548.2699     464.8843   1426.17981     548.2699     464.8843
   1426.16455     549.3894     466.8008   1426.16455     549.3894     466.8008
   1426.14929     553.0941     467.7374   1426.14929     553.0941     467.7374
   1426.13403     555.2233     470.3019   1426.13403     555.2233     470.3019
   1426.11877     556.6298     472.0676   1426.11877     556.6298     472.0676
   1426.10352     559.9555     473.8186   1426.10352     559.9555     473.8186
   1426.08826     562.1738     475.1767   1426.08826     562.1738     475.1767
   1426.07300     563.9182     477.4032   1426.07300     563.9182     477.4032
   1426.05774     566.4073     479.2878   1426.05774     566.4073     479.2878
   1426.04248     567.7757     480.4099   1426.04248     567.7757     480.4099
   1426.02722     570.7628     482.3303   1426.02722     570.7628     482.3303
   1426.01196     572.5786     484.7347   1426.01196     572.5786     484.7347
   1425.99670     574.1437     485.5914   1425.99670     574.1437     485.5914
   1425.98145     576.8989     488.0527   1425.98145     576.8989     488.0527
   1425.96619     579.2084     489.4484   1425.96619     579.2084     489.4484
   1425.95093     580.3063     491.1620   1425.95093     580.3063     491.1620
   1425.93567     582.5578     491.9605   1425.93567     582.5578     491.9605
   1425.92041     584.1693     493.7725   1425.92041     584.1693     493.7725
   1425.90515     587.1252     495.4669   1425.90515     587.1252     495.4669
   1425.88989     588.5374     497.5101   1425.88989     588.5374     497.5101
   1425.87463     590.3049     498.7931   1425.87463     590.3049     498.7931
   1425.85938     591.3531     500.7119   1425.85938     591.3531     500.7119
   1425.84412     594.3958     501.5158   1425.84412     594.3958     501.5158
   1425.82886     594.7941     503.3837   1425.82886     594.7941     503.3837
   1425.81360     597.4703     505.3179   1425.81360     597.4703     505.3179
   1425.79834     599.5342     505.9602   1425.79834     599.5342     505.9602
   1425.78308     599.7679     508.3925   1425.78308     599.7679     508.3925
   1425.76782     603.0317     509.2714   1425.76782     603.0317     509.2714
   1425.75256     604.3938     510.5418   1425.75256     604.3938     510.5418
   1425.73730     606.2959     513.1804   1425.73730     606.2959     513.1804
   1425.72205     607.1169     513.9094   1425.72205     607.1169     513.9094
   1425.70679     609.1692     515.0591   1425.70679     609.1692     515.0591
   1425.69153     610.6154     516.6188   1425.69153     610.6154     516.6188
   1425.67627     611.9217     517.8418   1425.67627     611.9217     517.8418
   1425.66101     614.0132     518.7791   1425.66101     614.0132     518.7791
   1425.64575     614.2518     520.1924   1425.64575     614.2518     520.1924
   1425.63049     616.5241     521.8372   1425.63049     616.5241     521.8372
   1425.61523     618.3878     522.1847   1425.61523     618.3878     522.1847
   1425.59998     618.8586     524.1872   1425.59998     618.8586     524.1872
   1425.58472     621.1225     525.3297   1425.58472     621.1225     525.3297
   1425.56946     622.6015     525.5114   1425.56946     622.6015     525.5114
   1425.55420     623.2673     528.5276   1425.55420     623.2673     528.5276
   1425.53894     624.8897     529.7271   1425.53894     624.8897     529.7271
   1425.52368     625.3820     530.1382   1425.52368     625.3820     530.1382
   1425.50842     625.8798     531.6099   1425.50842     625.8798     531.6099
   1425.49316     627.6304     532.0691   1425.49316     627.6304     532.0691
   1425.47791     629.4986     533.5563   1425.47791     629.4986     533.5563
   1425.46265     631.2814     535.0753   1425.46265     631.2814     535.0753
   1425.44739     631.4097     536.2506   1425.44739     631.4097     536.2506
   1425.43213     632.9802     537.5072   1425.43213     632.9802     537.5072
   1425.41687     634.6779     540.0096   1425.41687     634.6779     540.0096
   1425.40161     634.9471     539.3749   1425.40161     634.9471     539.3749
   1425.38635     635.6902     541.0511   1425.38635     635.6902     541.0511
   1425.37109     636.9976     541.3203   1425.37109     636.9976     541.3203
   1425.35583     637.6729     542.9803   1425.35583     637.6729     542.9803
   1425.34058     639.8965     542.8612   1425.34058     639.8965     542.8612
   1425.32532     639.9066     544.5793   1425.32532     639.9066     544.5793
   1425.31006     640.7336     545.2877   1425.31006     640.7336     545.2877
   1425.29480     642.8182     546.0325   1425.29480     642.8182     546.0325
   1425.27954     643.1838     546.9103   1425.27954     643.1838     546.9103
   1425.26428     643.7649     549.1985   1425.26428     643.7649     549.1985
   1425.24902     643.7110     549.7296   1425.24902     643.7110     549.7296
   1425.23376     646.1281     551.5980   1425.23376     646.1281     551.5980
   1425.21851     646.9900     552.2109   1425.21851     646.9900     552.2109
   1425.20325     647.3309     552.8342   1425.20325     647.3309     552.8342
   1425.18799     648.5034     553.9866   1425.18799     648.5034     553.9866
   1425.17273     649.6243     554.6647   1425.17273     649.6243     554.6647
   1425.15747     649.8740     555.9648   1425.15747     649.8740     555.9648
   1425.14221     649.4958     556.1816   1425.14221     649.4958     556.1816
   1425.12695     649.5950     556.9982   1425.12695     649.5950     556.9982
   1425.11169     652.2491     557.5175   1425.11169     652.2491     557.5175
   1425.09644     651.4945     559.8234   1425.09644     651.4945     559.8234
   1425.08118     653.0415     559.9186   1425.08118     653.0415     559.9186
   1425.06592     652.7791     561.0016   1425.06592     652.7791     561.0016
   1425.05066     654.0630     561.8563   1425.05066     654.0630     561.8563
   1425.03540     654.1452     561.6582   1425.03540     654.1452     561.6582
   1425.02014     655.6215     563.3047   1425.02014     655.6215     563.3047
   1425.00488     655.7183     563.7612   1425.00488     655.7183     563.7612
   1424.98962     656.4335     565.5302   1424.98962     656.4335     565.5302
   1424.97437     657.2193     566.1520   1424.97437     657.2193     566.1520
   1424.95911     657.7359     567.4089   1424.95911     657.7359     567.4089
   1424.94385     657.7290     567.5588   1424.94385     657.7290     567.5588
   1424.92859     659.5199     569.2919   1424.92859     659.5199     569.2919
   1424.91333     660.1236     570.2392   1424.91333     660.1236     570.2392
   1424.89807     659.6254     570.7680   1424.89807     659.6254     570.7680
   1424.88281     661.8664     572.9440   1424.88281     661.8664     572.9440
   1424.86755     661.7673     573.7180   1424.86755     661.7673     573.7180
   1424.85229     662.0553     573.2199   1424.85229     662.0553     573.2199
   1424.83704     661.5958     574.4048   1424.83704     661.5958     574.4048
   1424.82178     661.8696     575.1274   1424.82178     661.8696     575.1274
   1424.80652     661.9675     574.1793   1424.80652     661.9675     574.1793
   1424.79126     661.9637     575.9136   1424.79126     661.9637     575.9136
   1424.77600     661.4807     575.7542   1424.77600     661.4807     575.7542
   1424.76074     662.2888     576.3399   1424.76074     662.2888     576.3399
   1424.74548     661.1987     577.5819   1424.74548     661.1987     577.5819
   1424.73022     662.3036     577.9775   1424.73022     662.3036     577.9775
   1424.71497     662.3026     578.0736   1424.71497     662.3026     578.0736
   1424.69971     662.4845     578.8813   1424.69971     662.4845     578.8813
   1424.68445     662.5122     579.4250   1424.68445     662.5122     579.4250
   1424.66919     663.2142     580.8230   1424.66919     663.2142     580.8230
   1424.65393     663.1310     581.6693   1424.65393     663.1310     581.6693
   1424.63867     662.2837     581.5031   1424.63867     662.2837     581.5031
   1424.62341     663.5099     582.2899   1424.62341     663.5099     582.2899
   1424.60815     664.4969     583.4050   1424.60815     664.4969     583.4050
   1424.59290     663.1835     584.0231   1424.59290     663.1835     584.0231
   1424.57764     663.8591     583.9209   1424.57764     663.8591     583.9209
   1424.56238     664.0834     586.1206   1424.56238     664.0834     586.1206
   1424.54712     663.7894     585.7863   1424.54712     663.7894     585.7863
   1424.53186     664.3611     587.4962   1424.53186     664.3611     587.4962
   1424.51660     664.2250     586.7996   1424.51660     664.2250     586.7996
   1424.50134     664.8585     588.5397   1424.50134     664.8585     588.5397
   1424.48608     664.6078     588.0579   1424.48608     664.6078     588.0579
   1424.47083     664.2214     589.5637   1424.47083     664.2214     589.5637
   1424.45557     663.9827     588.8892   1424.45557     663.9827     588.8892
   1424.44031     663.7847     590.4702   1424.44031     663.7847     590.4702
   1424.42505     664.4761     590.5718   1424.42505     664.4761     590.5718
   1424.40979     664.4742     591.1649   1424.40979     664.4742     591.1649
   1424.39453     666.0096     591.7728   1424.39453     666.0096     591.7728
   1424.37927     664.4409     592.3955   1424.37927     664.4409     592.3955
   1424.36401     665.4398     593.4113   1424.36401     665.4398     593.4113
   1424.34875     664.4487     593.1423   1424.34875     664.4487     593.1423
   1424.33350     665.2902     594.6961   1424.33350     665.2902     594.6961
   1424.31824     665.3268     595.0427   1424.31824     665.3268     595.0427
   1424.30298     665.3766     595.4040   1424.30298     665.3766     595.4040
   1424.28772     665.1855     596.5157   1424.28772     665.1855     596.5157
   1424.27246     665.4441     596.6141   1424.27246     665.4441     596.6141
   1424.25720     664.1212     597.5298   1424.25720     664.1212     597.5298
   1424.24194     664.5881     597.8969   1424.24194     664.5881     597.8969
   1424.22668     664.7236     599.1041   1424.22668     664.7236     599.1041
   1424.21143     665.3438     598.7971   1424.21143     665.3438     598.7971
   1424.19617     665.4352     599.9258   1424.19617     665.4352     599.9258
   1424.18091     664.7050     599.8551   1424.18091     664.7050     599.8551
   1424.16565     665.4849     600.6204   1424.16565     665.4849     600.6204
