#     FILENAME=!Skynet_57528_lach-hhg-118_20395_20942.cyb.fits
#     BASENAME=Skynet_57528_lach-hhg-118_20395_20942
#     SRC_NAME=lach-hhg-118
#     OBSERVER=hhgmadison16_9500
#     DATE_OBS=2016-05-20T16:33:39.560
#        OBSID=20395
#      SCANNUM=20942
#          MJD=57528.6911
#          UTC=59709
#     SCANTYPE=track
#     DATAMODE=HIRES
#     TUNEFREQ=1420.0000
# Actual_FREQ1=1420.0000
# Actual_FREQ2=1420.0000
#    LO1Tuning=6870.000
#     RFFILTER=1355_1435
#        OBSBW=-15.6250
#        NCHAN=1024 
#        FOCUS=37.0709
#           RA=00:08:34.86
#          DEC=62:27:36.75
#      RA(hrs)=0.143000
#     DEC(deg)=62.460200
#    AZIM(deg)=325.972
#    ELEV(deg)=53.696
#     IFattens=10.00, 9.00
#      WARNING=None
#    TCAL_XL1=7.9635
#    TCAL_YR1=9.1340
#    TCAL_XL2=7.9635
#    TCAL_YR2=9.1340
#     TRX_XL1=11.7060
#     TRX_YR1=11.7060
#     TRX_XL2=11.7060
#     TRX_YR2=11.7060
#        TAVE=1.0000
#Freq1(MHz)          XL1          YR1  Freq2(MHz)          XL2          YR2 

   1427.81250     380.6363     279.9534   1427.81250     380.6363     279.9534
   1427.79724     381.0286     280.6752   1427.79724     381.0286     280.6752
   1427.78198     381.4744     281.0674   1427.78198     381.4744     281.0674
   1427.76672     382.4642     281.9105   1427.76672     382.4642     281.9105
   1427.75146     382.8145     283.0905   1427.75146     382.8145     283.0905
   1427.73621     383.8065     283.9657   1427.73621     383.8065     283.9657
   1427.72095     384.3017     285.1379   1427.72095     384.3017     285.1379
   1427.70569     386.2264     285.5862   1427.70569     386.2264     285.5862
   1427.69043     387.2982     286.6695   1427.69043     387.2982     286.6695
   1427.67517     387.8011     287.5953   1427.67517     387.8011     287.5953
   1427.65991     389.5094     288.2553   1427.65991     389.5094     288.2553
   1427.64465     390.2628     289.6428   1427.64465     390.2628     289.6428
   1427.62939     391.4799     291.1422   1427.62939     391.4799     291.1422
   1427.61414     393.1635     292.3033   1427.61414     393.1635     292.3033
   1427.59888     393.6241     293.7533   1427.59888     393.6241     293.7533
   1427.58362     395.5904     294.2080   1427.58362     395.5904     294.2080
   1427.56836     397.6636     295.8543   1427.56836     397.6636     295.8543
   1427.55310     399.0956     297.2155   1427.55310     399.0956     297.2155
   1427.53784     399.9753     298.8351   1427.53784     399.9753     298.8351
   1427.52258     401.7905     300.2217   1427.52258     401.7905     300.2217
   1427.50732     403.1454     301.3897   1427.50732     403.1454     301.3897
   1427.49207     405.7441     303.1145   1427.49207     405.7441     303.1145
   1427.47681     407.5270     304.5591   1427.47681     407.5270     304.5591
   1427.46155     409.1411     306.2913   1427.46155     409.1411     306.2913
   1427.44629     410.6492     307.9594   1427.44629     410.6492     307.9594
   1427.43103     412.8047     309.5602   1427.43103     412.8047     309.5602
   1427.41577     414.3856     311.7146   1427.41577     414.3856     311.7146
   1427.40051     416.9534     312.7711   1427.40051     416.9534     312.7711
   1427.38525     418.0930     314.9825   1427.38525     418.0930     314.9825
   1427.37000     419.4809     316.8343   1427.37000     419.4809     316.8343
   1427.35474     422.1252     318.4427   1427.35474     422.1252     318.4427
   1427.33948     424.3438     320.1164   1427.33948     424.3438     320.1164
   1427.32422     426.6146     321.9518   1427.32422     426.6146     321.9518
   1427.30896     428.9202     323.4353   1427.30896     428.9202     323.4353
   1427.29370     431.9135     325.2805   1427.29370     431.9135     325.2805
   1427.27844     433.7397     327.5010   1427.27844     433.7397     327.5010
   1427.26318     436.7100     329.4450   1427.26318     436.7100     329.4450
   1427.24792     438.3121     331.9264   1427.24792     438.3121     331.9264
   1427.23267     441.1908     334.0593   1427.23267     441.1908     334.0593
   1427.21741     443.3412     335.9803   1427.21741     443.3412     335.9803
   1427.20215     445.8771     337.8358   1427.20215     445.8771     337.8358
   1427.18689     448.8181     339.7636   1427.18689     448.8181     339.7636
   1427.17163     450.9566     342.2182   1427.17163     450.9566     342.2182
   1427.15637     452.8063     344.3214   1427.15637     452.8063     344.3214
   1427.14111     456.6595     346.5771   1427.14111     456.6595     346.5771
   1427.12585     458.3994     348.7342   1427.12585     458.3994     348.7342
   1427.11060     461.3389     350.8398   1427.11060     461.3389     350.8398
   1427.09534     463.9242     353.3532   1427.09534     463.9242     353.3532
   1427.08008     466.8795     355.3394   1427.08008     466.8795     355.3394
   1427.06482     469.6120     357.7541   1427.06482     469.6120     357.7541
   1427.04956     472.0633     360.4132   1427.04956     472.0633     360.4132
   1427.03430     475.2088     362.9511   1427.03430     475.2088     362.9511
   1427.01904     478.3240     364.9288   1427.01904     478.3240     364.9288
   1427.00378     481.1490     367.1578   1427.00378     481.1490     367.1578
   1426.98853     483.7025     368.9240   1426.98853     483.7025     368.9240
   1426.97327     486.3780     372.5606   1426.97327     486.3780     372.5606
   1426.95801     489.1642     374.5432   1426.95801     489.1642     374.5432
   1426.94275     493.0616     377.1472   1426.94275     493.0616     377.1472
   1426.92749     495.8542     379.4321   1426.92749     495.8542     379.4321
   1426.91223     499.1819     381.6826   1426.91223     499.1819     381.6826
   1426.89697     502.6467     384.4943   1426.89697     502.6467     384.4943
   1426.88171     504.2848     387.3306   1426.88171     504.2848     387.3306
   1426.86646     507.6640     389.2794   1426.86646     507.6640     389.2794
   1426.85120     510.9026     392.5094   1426.85120     510.9026     392.5094
   1426.83594     513.6946     394.6852   1426.83594     513.6946     394.6852
   1426.82068     516.7573     396.7666   1426.82068     516.7573     396.7666
   1426.80542     519.4611     399.6002   1426.80542     519.4611     399.6002
   1426.79016     523.8835     402.0309   1426.79016     523.8835     402.0309
   1426.77490     525.8019     404.4400   1426.77490     525.8019     404.4400
   1426.75964     529.3944     406.8818   1426.75964     529.3944     406.8818
   1426.74438     532.8192     410.0336   1426.74438     532.8192     410.0336
   1426.72913     535.6794     412.1869   1426.72913     535.6794     412.1869
   1426.71387     539.5144     414.7754   1426.71387     539.5144     414.7754
   1426.69861     542.0411     416.6386   1426.69861     542.0411     416.6386
   1426.68335     544.7443     420.4624   1426.68335     544.7443     420.4624
   1426.66809     547.1640     422.3143   1426.66809     547.1640     422.3143
   1426.65283     551.0696     425.8899   1426.65283     551.0696     425.8899
   1426.63757     554.1612     427.5427   1426.63757     554.1612     427.5427
   1426.62231     558.5092     430.3708   1426.62231     558.5092     430.3708
   1426.60706     560.8399     432.6844   1426.60706     560.8399     432.6844
   1426.59180     563.0215     435.3661   1426.59180     563.0215     435.3661
   1426.57654     565.8871     438.1050   1426.57654     565.8871     438.1050
   1426.56128     569.6928     440.7290   1426.56128     569.6928     440.7290
   1426.54602     572.7756     442.4324   1426.54602     572.7756     442.4324
   1426.53076     576.2476     445.8901   1426.53076     576.2476     445.8901
   1426.51550     579.0367     447.7548   1426.51550     579.0367     447.7548
   1426.50024     581.6635     450.5624   1426.50024     581.6635     450.5624
   1426.48499     585.1018     452.5618   1426.48499     585.1018     452.5618
   1426.46973     588.5208     456.4117   1426.46973     588.5208     456.4117
   1426.45447     591.2501     459.0221   1426.45447     591.2501     459.0221
   1426.43921     593.8963     460.9246   1426.43921     593.8963     460.9246
   1426.42395     597.1210     463.7559   1426.42395     597.1210     463.7559
   1426.40869     600.2910     465.2899   1426.40869     600.2910     465.2899
   1426.39343     603.3979     467.9031   1426.39343     603.3979     467.9031
   1426.37817     606.7123     471.6612   1426.37817     606.7123     471.6612
   1426.36292     609.1323     472.8137   1426.36292     609.1323     472.8137
   1426.34766     612.4616     476.1111   1426.34766     612.4616     476.1111
   1426.33240     614.7921     478.5386   1426.33240     614.7921     478.5386
   1426.31714     617.7856     481.1610   1426.31714     617.7856     481.1610
   1426.30188     620.6899     482.5540   1426.30188     620.6899     482.5540
   1426.28662     623.5693     485.8821   1426.28662     623.5693     485.8821
   1426.27136     626.0043     488.3276   1426.27136     626.0043     488.3276
   1426.25610     628.5925     490.3043   1426.25610     628.5925     490.3043
   1426.24084     631.9686     492.5695   1426.24084     631.9686     492.5695
   1426.22559     635.0305     494.2419   1426.22559     635.0305     494.2419
   1426.21033     637.5465     497.8387   1426.21033     637.5465     497.8387
   1426.19507     639.8983     500.4735   1426.19507     639.8983     500.4735
   1426.17981     643.8104     502.5344   1426.17981     643.8104     502.5344
   1426.16455     645.5369     504.3496   1426.16455     645.5369     504.3496
   1426.14929     648.4113     506.4026   1426.14929     648.4113     506.4026
   1426.13403     650.5169     509.6055   1426.13403     650.5169     509.6055
   1426.11877     653.5298     510.9058   1426.11877     653.5298     510.9058
   1426.10352     655.6893     512.6527   1426.10352     655.6893     512.6527
   1426.08826     657.7884     516.0570   1426.08826     657.7884     516.0570
   1426.07300     660.6929     517.6406   1426.07300     660.6929     517.6406
   1426.05774     664.3561     520.6818   1426.05774     664.3561     520.6818
   1426.04248     666.0676     522.8476   1426.04248     666.0676     522.8476
   1426.02722     668.5141     523.8129   1426.02722     668.5141     523.8129
   1426.01196     670.5425     526.6128   1426.01196     670.5425     526.6128
   1425.99670     674.0711     527.6808   1425.99670     674.0711     527.6808
   1425.98145     675.9545     530.4461   1425.98145     675.9545     530.4461
   1425.96619     678.0183     533.2388   1425.96619     678.0183     533.2388
   1425.95093     679.6321     535.1169   1425.95093     679.6321     535.1169
   1425.93567     683.2878     536.1960   1425.93567     683.2878     536.1960
   1425.92041     684.1908     538.8892   1425.92041     684.1908     538.8892
   1425.90515     688.1332     541.1832   1425.90515     688.1332     541.1832
   1425.88989     688.5749     542.8617   1425.88989     688.5749     542.8617
   1425.87463     692.1945     545.6928   1425.87463     692.1945     545.6928
   1425.85938     693.0274     547.1991   1425.85938     693.0274     547.1991
   1425.84412     695.4241     548.1385   1425.84412     695.4241     548.1385
   1425.82886     697.8950     551.3809   1425.82886     697.8950     551.3809
   1425.81360     699.5829     552.7977   1425.81360     699.5829     552.7977
   1425.79834     702.1042     554.6819   1425.79834     702.1042     554.6819
   1425.78308     704.9124     556.1285   1425.78308     704.9124     556.1285
   1425.76782     705.1164     558.3777   1425.76782     705.1164     558.3777
   1425.75256     707.5134     559.8569   1425.75256     707.5134     559.8569
   1425.73730     707.7632     561.9673   1425.73730     707.7632     561.9673
   1425.72205     710.7917     564.1222   1425.72205     710.7917     564.1222
   1425.70679     712.7076     565.4150   1425.70679     712.7076     565.4150
   1425.69153     714.6848     566.5478   1425.69153     714.6848     566.5478
   1425.67627     716.7213     568.4814   1425.67627     716.7213     568.4814
   1425.66101     718.8245     570.2571   1425.66101     718.8245     570.2571
   1425.64575     720.3317     573.4208   1425.64575     720.3317     573.4208
   1425.63049     720.1795     574.3137   1425.63049     720.1795     574.3137
   1425.61523     722.7593     575.7359   1425.61523     722.7593     575.7359
   1425.59998     723.9943     577.8385   1425.59998     723.9943     577.8385
   1425.58472     726.6900     578.3376   1425.58472     726.6900     578.3376
   1425.56946     728.9471     580.7692   1425.56946     728.9471     580.7692
   1425.55420     729.6411     581.7505   1425.55420     729.6411     581.7505
   1425.53894     730.3736     583.4451   1425.53894     730.3736     583.4451
   1425.52368     731.1966     584.4465   1425.52368     731.1966     584.4465
   1425.50842     734.2620     587.1964   1425.50842     734.2620     587.1964
   1425.49316     734.4108     587.7343   1425.49316     734.4108     587.7343
   1425.47791     736.0938     590.4598   1425.47791     736.0938     590.4598
   1425.46265     737.7424     591.2457   1425.46265     737.7424     591.2457
   1425.44739     738.8163     592.9777   1425.44739     738.8163     592.9777
   1425.43213     740.4641     593.8495   1425.43213     740.4641     593.8495
   1425.41687     742.0988     597.3340   1425.41687     742.0988     597.3340
   1425.40161     742.8248     597.0956   1425.40161     742.8248     597.0956
   1425.38635     743.3123     598.8966   1425.38635     743.3123     598.8966
   1425.37109     744.7004     600.5518   1425.37109     744.7004     600.5518
   1425.35583     746.1797     601.2739   1425.35583     746.1797     601.2739
   1425.34058     747.0048     602.4729   1425.34058     747.0048     602.4729
   1425.32532     747.5410     603.9374   1425.32532     747.5410     603.9374
   1425.31006     748.3258     605.4556   1425.31006     748.3258     605.4556
   1425.29480     750.0486     606.2289   1425.29480     750.0486     606.2289
   1425.27954     750.3723     607.8134   1425.27954     750.3723     607.8134
   1425.26428     751.6970     609.4902   1425.26428     751.6970     609.4902
   1425.24902     752.0082     610.1241   1425.24902     752.0082     610.1241
   1425.23376     754.2384     611.6917   1425.23376     754.2384     611.6917
   1425.21851     754.3114     611.7581   1425.21851     754.3114     611.7581
   1425.20325     754.9153     614.5402   1425.20325     754.9153     614.5402
   1425.18799     755.7905     615.5087   1425.18799     755.7905     615.5087
   1425.17273     756.9436     616.1054   1425.17273     756.9436     616.1054
   1425.15747     756.6902     617.4896   1425.15747     756.6902     617.4896
   1425.14221     757.6324     617.7820   1425.14221     757.6324     617.7820
   1425.12695     758.6178     620.3813   1425.12695     758.6178     620.3813
   1425.11169     759.7229     620.7296   1425.11169     759.7229     620.7296
   1425.09644     759.3672     621.8293   1425.09644     759.3672     621.8293
   1425.08118     760.4658     622.4982   1425.08118     760.4658     622.4982
   1425.06592     760.6755     623.7140   1425.06592     760.6755     623.7140
   1425.05066     761.8581     624.9655   1425.05066     761.8581     624.9655
   1425.03540     762.3708     626.4907   1425.03540     762.3708     626.4907
   1425.02014     763.0731     628.3233   1425.02014     763.0731     628.3233
   1425.00488     764.2255     628.1990   1425.00488     764.2255     628.1990
   1424.98962     762.8463     629.7940   1424.98962     762.8463     629.7940
   1424.97437     764.1725     629.7531   1424.97437     764.1725     629.7531
   1424.95911     764.2434     629.9534   1424.95911     764.2434     629.9534
   1424.94385     765.2003     631.6537   1424.94385     765.2003     631.6537
   1424.92859     764.7284     633.2407   1424.92859     764.7284     633.2407
   1424.91333     765.2469     632.8768   1424.91333     765.2469     632.8768
   1424.89807     766.2849     633.3866   1424.89807     766.2849     633.3866
   1424.88281     765.9673     634.8534   1424.88281     765.9673     634.8534
   1424.86755     766.0583     634.9982   1424.86755     766.0583     634.9982
   1424.85229     766.3881     635.9755   1424.85229     766.3881     635.9755
   1424.83704     767.8179     637.7650   1424.83704     767.8179     637.7650
   1424.82178     766.9491     638.8461   1424.82178     766.9491     638.8461
   1424.80652     767.7491     639.4155   1424.80652     767.7491     639.4155
   1424.79126     767.6191     640.5070   1424.79126     767.6191     640.5070
   1424.77600     767.8522     640.9429   1424.77600     767.8522     640.9429
   1424.76074     768.2675     641.1577   1424.76074     768.2675     641.1577
   1424.74548     768.2635     641.7194   1424.74548     768.2635     641.7194
   1424.73022     768.1100     642.2848   1424.73022     768.1100     642.2848
   1424.71497     767.5195     642.9836   1424.71497     767.5195     642.9836
   1424.69971     767.4774     643.4257   1424.69971     767.4774     643.4257
   1424.68445     768.0887     644.1624   1424.68445     768.0887     644.1624
   1424.66919     768.7036     645.5488   1424.66919     768.7036     645.5488
   1424.65393     768.3199     646.6200   1424.65393     768.3199     646.6200
   1424.63867     768.0355     646.0802   1424.63867     768.0355     646.0802
   1424.62341     769.0587     647.7262   1424.62341     769.0587     647.7262
   1424.60815     769.5939     647.6244   1424.60815     769.5939     647.6244
   1424.59290     768.3229     648.7573   1424.59290     768.3229     648.7573
   1424.57764     769.0264     649.0333   1424.57764     769.0264     649.0333
   1424.56238     768.0815     649.2930   1424.56238     768.0815     649.2930
   1424.54712     768.4724     649.8672   1424.54712     768.4724     649.8672
   1424.53186     767.9601     650.4042   1424.53186     767.9601     650.4042
   1424.51660     766.9095     651.0507   1424.51660     766.9095     651.0507
   1424.50134     768.3137     651.1028   1424.50134     768.3137     651.1028
   1424.48608     767.7659     652.8913   1424.48608     767.7659     652.8913
   1424.47083     767.2160     653.2057   1424.47083     767.2160     653.2057
   1424.45557     766.7061     652.9705   1424.45557     766.7061     652.9705
   1424.44031     768.5784     652.6798   1424.44031     768.5784     652.6798
   1424.42505     767.4389     654.6673   1424.42505     767.4389     654.6673
   1424.40979     769.3602     654.3632   1424.40979     769.3602     654.3632
   1424.39453     766.5936     655.3686   1424.39453     766.5936     655.3686
   1424.37927     766.8874     655.9833   1424.37927     766.8874     655.9833
   1424.36401     767.5528     655.5236   1424.36401     767.5528     655.5236
   1424.34875     765.9261     656.5298   1424.34875     765.9261     656.5298
   1424.33350     765.3700     656.2728   1424.33350     765.3700     656.2728
   1424.31824     764.9421     657.3693   1424.31824     764.9421     657.3693
   1424.30298     765.1777     657.0767   1424.30298     765.1777     657.0767
   1424.28772     766.1497     656.9929   1424.28772     766.1497     656.9929
   1424.27246     764.3797     656.6961   1424.27246     764.3797     656.6961
   1424.25720     765.4795     658.7896   1424.25720     765.4795     658.7896
   1424.24194     765.4130     659.5239   1424.24194     765.4130     659.5239
   1424.22668     764.3701     659.1727   1424.22668     764.3701     659.1727
   1424.21143     764.4808     659.2840   1424.21143     764.4808     659.2840
   1424.19617     764.0366     658.9922   1424.19617     764.0366     658.9922
   1424.18091     763.9510     660.0121   1424.18091     763.9510     660.0121
   1424.16565     763.9897     659.6577   1424.16565     763.9897     659.6577
