#     FILENAME=!Skynet_57528_lach-hhg-156_20512_20980.cyb.fits
#     BASENAME=Skynet_57528_lach-hhg-156_20512_20980
#     SRC_NAME=lach-hhg-156
#     OBSERVER=hhgmadison16_9500
#     DATE_OBS=2016-05-20T17:49:46.680
#        OBSID=20512
#      SCANNUM=20980
#          MJD=57528.7439
#          UTC=64275
#     SCANTYPE=track
#     DATAMODE=HIRES
#     TUNEFREQ=1420.0000
# Actual_FREQ1=1420.0000
# Actual_FREQ2=1420.0000
#    LO1Tuning=6870.000
#     RFFILTER=1355_1435
#        OBSBW=-15.6250
#        NCHAN=1024 
#        FOCUS=37.0709
#           RA=04:31:22.13
#          DEC=48:13:50.42
#      RA(hrs)=4.522800
#     DEC(deg)=48.230700
#    AZIM(deg)=6.260
#    ELEV(deg)=80.027
#     IFattens=10.00, 9.00
#      WARNING=None
#    TCAL_XL1=7.9635
#    TCAL_YR1=9.1340
#    TCAL_XL2=7.9635
#    TCAL_YR2=9.1340
#     TRX_XL1=11.7060
#     TRX_YR1=11.7060
#     TRX_XL2=11.7060
#     TRX_YR2=11.7060
#        TAVE=1.0000
#Freq1(MHz)          XL1          YR1  Freq2(MHz)          XL2          YR2 

   1427.81250     377.2175     339.6338   1427.81250     377.2175     339.6338
   1427.79724     377.7975     341.1953   1427.79724     377.7975     341.1953
   1427.78198     378.5793     342.8022   1427.78198     378.5793     342.8022
   1427.76672     379.3586     344.1921   1427.76672     379.3586     344.1921
   1427.75146     379.8268     345.5095   1427.75146     379.8268     345.5095
   1427.73621     381.6172     347.4355   1427.73621     381.6172     347.4355
   1427.72095     381.9380     349.1527   1427.72095     381.9380     349.1527
   1427.70569     382.9390     351.3415   1427.70569     382.9390     351.3415
   1427.69043     384.1310     352.4427   1427.69043     384.1310     352.4427
   1427.67517     384.5698     354.8180   1427.67517     384.5698     354.8180
   1427.65991     385.9230     357.4168   1427.65991     385.9230     357.4168
   1427.64465     387.1862     358.9958   1427.64465     387.1862     358.9958
   1427.62939     388.2966     360.9963   1427.62939     388.2966     360.9963
   1427.61414     389.4602     363.0346   1427.61414     389.4602     363.0346
   1427.59888     390.8882     365.6304   1427.59888     390.8882     365.6304
   1427.58362     392.3399     366.8312   1427.58362     392.3399     366.8312
   1427.56836     394.3142     369.4171   1427.56836     394.3142     369.4171
   1427.55310     395.0659     371.5198   1427.55310     395.0659     371.5198
   1427.53784     397.6374     373.5002   1427.53784     397.6374     373.5002
   1427.52258     398.8290     376.1477   1427.52258     398.8290     376.1477
   1427.50732     399.5917     377.5001   1427.50732     399.5917     377.5001
   1427.49207     401.3690     380.5478   1427.49207     401.3690     380.5478
   1427.47681     402.6547     382.5752   1427.47681     402.6547     382.5752
   1427.46155     404.9362     385.2240   1427.46155     404.9362     385.2240
   1427.44629     406.6661     387.9789   1427.44629     406.6661     387.9789
   1427.43103     409.3542     390.5634   1427.43103     409.3542     390.5634
   1427.41577     410.6727     392.7640   1427.41577     410.6727     392.7640
   1427.40051     412.4811     395.6400   1427.40051     412.4811     395.6400
   1427.38525     413.8992     398.3005   1427.38525     413.8992     398.3005
   1427.37000     417.3531     400.1566   1427.37000     417.3531     400.1566
   1427.35474     418.5320     402.7643   1427.35474     418.5320     402.7643
   1427.33948     420.7108     405.1194   1427.33948     420.7108     405.1194
   1427.32422     422.3862     407.9645   1427.32422     422.3862     407.9645
   1427.30896     424.9897     410.4874   1427.30896     424.9897     410.4874
   1427.29370     426.9252     413.9434   1427.29370     426.9252     413.9434
   1427.27844     429.0269     415.0335   1427.27844     429.0269     415.0335
   1427.26318     431.3725     418.1968   1427.26318     431.3725     418.1968
   1427.24792     433.9212     420.6061   1427.24792     433.9212     420.6061
   1427.23267     436.8399     423.3275   1427.23267     436.8399     423.3275
   1427.21741     439.5100     426.1111   1427.21741     439.5100     426.1111
   1427.20215     441.3602     428.7744   1427.20215     441.3602     428.7744
   1427.18689     443.9319     431.5627   1427.18689     443.9319     431.5627
   1427.17163     446.1946     434.1816   1427.17163     446.1946     434.1816
   1427.15637     449.1754     436.8282   1427.15637     449.1754     436.8282
   1427.14111     451.5081     439.0336   1427.14111     451.5081     439.0336
   1427.12585     453.9279     441.9345   1427.12585     453.9279     441.9345
   1427.11060     456.9743     444.5397   1427.11060     456.9743     444.5397
   1427.09534     459.1187     448.0418   1427.09534     459.1187     448.0418
   1427.08008     462.0946     450.3426   1427.08008     462.0946     450.3426
   1427.06482     464.7879     452.1548   1427.06482     464.7879     452.1548
   1427.04956     467.3496     455.3069   1427.04956     467.3496     455.3069
   1427.03430     470.2023     457.7302   1427.03430     470.2023     457.7302
   1427.01904     473.4385     460.3166   1427.01904     473.4385     460.3166
   1427.00378     475.7544     463.0594   1427.00378     475.7544     463.0594
   1426.98853     477.6175     465.7220   1426.98853     477.6175     465.7220
   1426.97327     481.5766     468.9033   1426.97327     481.5766     468.9033
   1426.95801     484.3094     470.7044   1426.95801     484.3094     470.7044
   1426.94275     486.2800     473.6053   1426.94275     486.2800     473.6053
   1426.92749     489.7199     476.1247   1426.92749     489.7199     476.1247
   1426.91223     493.2380     478.8057   1426.91223     493.2380     478.8057
   1426.89697     496.3109     481.7332   1426.89697     496.3109     481.7332
   1426.88171     498.3615     484.0775   1426.88171     498.3615     484.0775
   1426.86646     502.4601     486.6770   1426.86646     502.4601     486.6770
   1426.85120     505.9070     489.0438   1426.85120     505.9070     489.0438
   1426.83594     508.2323     491.1936   1426.83594     508.2323     491.1936
   1426.82068     511.6466     494.6481   1426.82068     511.6466     494.6481
   1426.80542     514.0829     497.3168   1426.80542     514.0829     497.3168
   1426.79016     518.0206     499.7994   1426.79016     518.0206     499.7994
   1426.77490     520.0165     501.2086   1426.77490     520.0165     501.2086
   1426.75964     523.6413     503.8925   1426.75964     523.6413     503.8925
   1426.74438     527.4553     506.4906   1426.74438     527.4553     506.4906
   1426.72913     528.6693     508.9003   1426.72913     528.6693     508.9003
   1426.71387     532.7069     510.9752   1426.71387     532.7069     510.9752
   1426.69861     535.8713     513.1730   1426.69861     535.8713     513.1730
   1426.68335     539.6652     515.5571   1426.68335     539.6652     515.5571
   1426.66809     541.4305     517.4643   1426.66809     541.4305     517.4643
   1426.65283     544.8557     520.3356   1426.65283     544.8557     520.3356
   1426.63757     547.4265     522.4807   1426.63757     547.4265     522.4807
   1426.62231     552.8094     525.7711   1426.62231     552.8094     525.7711
   1426.60706     554.6812     526.7510   1426.60706     554.6812     526.7510
   1426.59180     557.6122     528.9628   1426.59180     557.6122     528.9628
   1426.57654     560.8089     530.2198   1426.57654     560.8089     530.2198
   1426.56128     563.5710     532.6196   1426.56128     563.5710     532.6196
   1426.54602     565.9919     535.3150   1426.54602     565.9919     535.3150
   1426.53076     569.2556     537.2972   1426.53076     569.2556     537.2972
   1426.51550     572.9301     539.7141   1426.51550     572.9301     539.7141
   1426.50024     575.7463     541.7540   1426.50024     575.7463     541.7540
   1426.48499     579.2759     544.4965   1426.48499     579.2759     544.4965
   1426.46973     583.1232     544.5748   1426.46973     583.1232     544.5748
   1426.45447     586.0151     548.1077   1426.45447     586.0151     548.1077
   1426.43921     588.4583     550.2676   1426.43921     588.4583     550.2676
   1426.42395     590.5787     551.1797   1426.42395     590.5787     551.1797
   1426.40869     594.3186     553.3710   1426.40869     594.3186     553.3710
   1426.39343     597.6751     553.8438   1426.39343     597.6751     553.8438
   1426.37817     601.2977     557.4955   1426.37817     601.2977     557.4955
   1426.36292     603.0133     559.1529   1426.36292     603.0133     559.1529
   1426.34766     606.5498     560.5314   1426.34766     606.5498     560.5314
   1426.33240     608.7357     562.0893   1426.33240     608.7357     562.0893
   1426.31714     612.4395     563.7650   1426.31714     612.4395     563.7650
   1426.30188     615.2502     565.1599   1426.30188     615.2502     565.1599
   1426.28662     618.0938     567.1500   1426.28662     618.0938     567.1500
   1426.27136     620.3531     568.2874   1426.27136     620.3531     568.2874
   1426.25610     623.6450     570.6158   1426.25610     623.6450     570.6158
   1426.24084     626.2403     572.8206   1426.24084     626.2403     572.8206
   1426.22559     629.5911     572.7987   1426.22559     629.5911     572.7987
   1426.21033     632.5096     575.2927   1426.21033     632.5096     575.2927
   1426.19507     635.3535     576.3717   1426.19507     635.3535     576.3717
   1426.17981     637.4400     577.9993   1426.17981     637.4400     577.9993
   1426.16455     641.3608     579.3178   1426.16455     641.3608     579.3178
   1426.14929     643.2812     581.3284   1426.14929     643.2812     581.3284
   1426.13403     646.8246     582.3157   1426.13403     646.8246     582.3157
   1426.11877     648.5204     583.4806   1426.11877     648.5204     583.4806
   1426.10352     653.2186     584.8813   1426.10352     653.2186     584.8813
   1426.08826     653.7209     586.1633   1426.08826     653.7209     586.1633
   1426.07300     658.0925     588.1768   1426.07300     658.0925     588.1768
   1426.05774     660.2622     589.1200   1426.05774     660.2622     589.1200
   1426.04248     662.0261     590.0211   1426.04248     662.0261     590.0211
   1426.02722     663.7484     591.6978   1426.02722     663.7484     591.6978
   1426.01196     667.8392     592.6642   1426.01196     667.8392     592.6642
   1425.99670     671.0831     593.8442   1425.99670     671.0831     593.8442
   1425.98145     671.8682     595.5723   1425.98145     671.8682     595.5723
   1425.96619     674.4377     596.4670   1425.96619     674.4377     596.4670
   1425.95093     677.1254     596.9807   1425.95093     677.1254     596.9807
   1425.93567     679.2568     597.3419   1425.93567     679.2568     597.3419
   1425.92041     681.5400     598.2183   1425.92041     681.5400     598.2183
   1425.90515     684.2010     600.0087   1425.90515     684.2010     600.0087
   1425.88989     686.8689     602.1503   1425.88989     686.8689     602.1503
   1425.87463     688.3828     602.1673   1425.87463     688.3828     602.1673
   1425.85938     691.1021     602.5348   1425.85938     691.1021     602.5348
   1425.84412     692.9528     604.1726   1425.84412     692.9528     604.1726
   1425.82886     694.7380     605.1221   1425.82886     694.7380     605.1221
   1425.81360     698.1791     604.9783   1425.81360     698.1791     604.9783
   1425.79834     699.9799     607.0504   1425.79834     699.9799     607.0504
   1425.78308     700.9830     607.2542   1425.78308     700.9830     607.2542
   1425.76782     704.3624     607.8969   1425.76782     704.3624     607.8969
   1425.75256     706.7343     608.8129   1425.75256     706.7343     608.8129
   1425.73730     707.3812     609.2560   1425.73730     707.3812     609.2560
   1425.72205     710.2987     609.8533   1425.72205     710.2987     609.8533
   1425.70679     711.4398     610.3234   1425.70679     711.4398     610.3234
   1425.69153     713.5040     611.0787   1425.69153     713.5040     611.0787
   1425.67627     715.3805     612.2790   1425.67627     715.3805     612.2790
   1425.66101     717.4882     613.2264   1425.66101     717.4882     613.2264
   1425.64575     719.8504     613.8248   1425.64575     719.8504     613.8248
   1425.63049     720.4036     613.5865   1425.63049     720.4036     613.5865
   1425.61523     722.1156     615.3525   1425.61523     722.1156     615.3525
   1425.59998     723.9039     615.2914   1425.59998     723.9039     615.2914
   1425.58472     726.3258     616.5101   1425.58472     726.3258     616.5101
   1425.56946     727.3985     617.1768   1425.56946     727.3985     617.1768
   1425.55420     729.9551     617.0634   1425.55420     729.9551     617.0634
   1425.53894     728.9781     617.5899   1425.53894     728.9781     617.5899
   1425.52368     731.4581     617.4902   1425.52368     731.4581     617.4902
   1425.50842     735.1047     618.2534   1425.50842     735.1047     618.2534
   1425.49316     734.3925     619.1761   1425.49316     734.3925     619.1761
   1425.47791     735.7226     618.0887   1425.47791     735.7226     618.0887
   1425.46265     738.5292     619.3674   1425.46265     738.5292     619.3674
   1425.44739     739.4623     620.3832   1425.44739     739.4623     620.3832
   1425.43213     742.3746     619.9012   1425.43213     742.3746     619.9012
   1425.41687     741.4848     621.3497   1425.41687     741.4848     621.3497
   1425.40161     742.7594     620.1018   1425.40161     742.7594     620.1018
   1425.38635     745.8394     620.5399   1425.38635     745.8394     620.5399
   1425.37109     746.3491     621.8603   1425.37109     746.3491     621.8603
   1425.35583     746.6019     621.7864   1425.35583     746.6019     621.7864
   1425.34058     747.7379     622.0180   1425.34058     747.7379     622.0180
   1425.32532     748.4777     622.3461   1425.32532     748.4777     622.3461
   1425.31006     749.8608     622.9011   1425.31006     749.8608     622.9011
   1425.29480     752.2361     623.7150   1425.29480     752.2361     623.7150
   1425.27954     752.1715     623.5294   1425.27954     752.1715     623.5294
   1425.26428     753.9736     623.7428   1425.26428     753.9736     623.7428
   1425.24902     754.2311     623.3257   1425.24902     754.2311     623.3257
   1425.23376     756.4543     622.4080   1425.23376     756.4543     622.4080
   1425.21851     755.9177     623.5880   1425.21851     755.9177     623.5880
   1425.20325     757.1937     624.3635   1425.20325     757.1937     624.3635
   1425.18799     758.0925     623.3522   1425.18799     758.0925     623.3522
   1425.17273     757.7187     623.9841   1425.17273     757.7187     623.9841
   1425.15747     759.1398     623.7355   1425.15747     759.1398     623.7355
   1425.14221     759.4589     624.4709   1425.14221     759.4589     624.4709
   1425.12695     762.5771     625.0131   1425.12695     762.5771     625.0131
   1425.11169     762.1984     624.6408   1425.11169     762.1984     624.6408
   1425.09644     762.9907     624.1348   1425.09644     762.9907     624.1348
   1425.08118     762.3104     624.4471   1425.08118     762.3104     624.4471
   1425.06592     762.4358     624.7844   1425.06592     762.4358     624.7844
   1425.05066     763.3976     624.5121   1425.05066     763.3976     624.5121
   1425.03540     764.5790     624.9041   1425.03540     764.5790     624.9041
   1425.02014     765.2109     624.3265   1425.02014     765.2109     624.3265
   1425.00488     764.2522     624.8024   1425.00488     764.2522     624.8024
   1424.98962     767.4476     624.4164   1424.98962     767.4476     624.4164
   1424.97437     766.6149     625.0007   1424.97437     766.6149     625.0007
   1424.95911     766.9521     624.0522   1424.95911     766.9521     624.0522
   1424.94385     766.9177     623.7238   1424.94385     766.9177     623.7238
   1424.92859     768.1674     624.3829   1424.92859     768.1674     624.3829
   1424.91333     768.5319     624.3811   1424.91333     768.5319     624.3811
   1424.89807     768.6378     623.2465   1424.89807     768.6378     623.2465
   1424.88281     767.5967     623.1127   1424.88281     767.5967     623.1127
   1424.86755     767.7467     623.5685   1424.86755     767.7467     623.5685
   1424.85229     769.1837     623.5560   1424.85229     769.1837     623.5560
   1424.83704     768.8750     622.5018   1424.83704     768.8750     622.5018
   1424.82178     768.3024     623.7844   1424.82178     768.3024     623.7844
   1424.80652     769.7386     622.5754   1424.80652     769.7386     622.5754
   1424.79126     769.7101     622.6920   1424.79126     769.7101     622.6920
   1424.77600     770.6882     623.0328   1424.77600     770.6882     623.0328
   1424.76074     769.5172     621.8079   1424.76074     769.5172     621.8079
   1424.74548     770.7382     622.5280   1424.74548     770.7382     622.5280
   1424.73022     770.3229     621.9288   1424.73022     770.3229     621.9288
   1424.71497     769.5245     621.0582   1424.71497     769.5245     621.0582
   1424.69971     770.7101     620.9480   1424.69971     770.7101     620.9480
   1424.68445     770.3754     621.3408   1424.68445     770.3754     621.3408
   1424.66919     771.1818     620.2120   1424.66919     771.1818     620.2120
   1424.65393     771.2245     620.8650   1424.65393     771.2245     620.8650
   1424.63867     770.4595     620.0792   1424.63867     770.4595     620.0792
   1424.62341     770.4160     619.1020   1424.62341     770.4160     619.1020
   1424.60815     769.8152     620.2079   1424.60815     769.8152     620.2079
   1424.59290     769.8993     619.8656   1424.59290     769.8993     619.8656
   1424.57764     771.0099     618.8925   1424.57764     771.0099     618.8925
   1424.56238     768.7422     619.1633   1424.56238     768.7422     619.1633
   1424.54712     768.6082     619.4393   1424.54712     768.6082     619.4393
   1424.53186     769.7715     617.7830   1424.53186     769.7715     617.7830
   1424.51660     769.4508     617.1902   1424.51660     769.4508     617.1902
   1424.50134     769.6309     618.0731   1424.50134     769.6309     618.0731
   1424.48608     768.7379     616.4699   1424.48608     768.7379     616.4699
   1424.47083     768.4512     616.7691   1424.47083     768.4512     616.7691
   1424.45557     769.1652     615.7576   1424.45557     769.1652     615.7576
   1424.44031     768.1470     616.2415   1424.44031     768.1470     616.2415
   1424.42505     766.7651     616.0525   1424.42505     766.7651     616.0525
   1424.40979     767.7671     614.4266   1424.40979     767.7671     614.4266
   1424.39453     767.5088     614.8774   1424.39453     767.5088     614.8774
   1424.37927     766.6599     614.1138   1424.37927     766.6599     614.1138
   1424.36401     767.0224     613.7338   1424.36401     767.0224     613.7338
   1424.34875     766.2095     613.8194   1424.34875     766.2095     613.8194
   1424.33350     766.2414     612.0618   1424.33350     766.2414     612.0618
   1424.31824     765.5303     612.0189   1424.31824     765.5303     612.0189
   1424.30298     766.3269     612.2053   1424.30298     766.3269     612.2053
   1424.28772     764.3107     611.7703   1424.28772     764.3107     611.7703
   1424.27246     764.2514     610.7910   1424.27246     764.2514     610.7910
   1424.25720     764.0522     611.3370   1424.25720     764.0522     611.3370
   1424.24194     763.7274     611.1515   1424.24194     763.7274     611.1515
   1424.22668     762.7411     610.6701   1424.22668     762.7411     610.6701
   1424.21143     763.4969     609.9462   1424.21143     763.4969     609.9462
   1424.19617     761.8984     610.0936   1424.19617     761.8984     610.0936
   1424.18091     762.1345     608.7723   1424.18091     762.1345     608.7723
   1424.16565     762.2881     609.1010   1424.16565     762.2881     609.1010
