#     FILENAME=!Skynet_57528_lach-cc-207_20614_21052.cyb.fits
#     BASENAME=Skynet_57528_lach-cc-207_20614_21052
#     SRC_NAME=lach-cc-207
#     OBSERVER=ccmadison16_9505
#     DATE_OBS=2016-05-20T20:20:51.500
#        OBSID=20614
#      SCANNUM=21052
#          MJD=57528.8489
#          UTC=73341
#     SCANTYPE=track
#     DATAMODE=HIRES
#     TUNEFREQ=1420.0000
# Actual_FREQ1=1420.0000
# Actual_FREQ2=1420.0000
#    LO1Tuning=6870.000
#     RFFILTER=1355_1435
#        OBSBW=-15.6250
#        NCHAN=1024 
#        FOCUS=37.0709
#           RA=06:40:33.59
#          DEC=05:16:39.27
#      RA(hrs)=6.676000
#     DEC(deg)=5.277600
#    AZIM(deg)=186.618
#    ELEV(deg)=56.499
#     IFattens=10.00, 9.00
#      WARNING=None
#    TCAL_XL1=7.9635
#    TCAL_YR1=9.1340
#    TCAL_XL2=7.9635
#    TCAL_YR2=9.1340
#     TRX_XL1=11.7060
#     TRX_YR1=11.7060
#     TRX_XL2=11.7060
#     TRX_YR2=11.7060
#        TAVE=1.0000
#Freq1(MHz)          XL1          YR1  Freq2(MHz)          XL2          YR2 

   1427.81250     358.7056     265.2578   1427.81250     358.7056     265.2578
   1427.79724     359.6310     266.1004   1427.79724     359.6310     266.1004
   1427.78198     360.3556     266.9388   1427.78198     360.3556     266.9388
   1427.76672     361.7121     267.1846   1427.76672     361.7121     267.1846
   1427.75146     362.0697     268.2076   1427.75146     362.0697     268.2076
   1427.73621     362.2379     269.1637   1427.73621     362.2379     269.1637
   1427.72095     363.8152     270.6742   1427.72095     363.8152     270.6742
   1427.70569     363.9274     271.1340   1427.70569     363.9274     271.1340
   1427.69043     365.4879     272.2265   1427.69043     365.4879     272.2265
   1427.67517     366.2276     273.2960   1427.67517     366.2276     273.2960
   1427.65991     367.2029     274.3507   1427.65991     367.2029     274.3507
   1427.64465     367.8485     275.2579   1427.64465     367.8485     275.2579
   1427.62939     369.6184     276.1744   1427.62939     369.6184     276.1744
   1427.61414     370.5432     277.3662   1427.61414     370.5432     277.3662
   1427.59888     372.3654     278.8781   1427.59888     372.3654     278.8781
   1427.58362     373.4100     279.7879   1427.58362     373.4100     279.7879
   1427.56836     374.5329     280.8906   1427.56836     374.5329     280.8906
   1427.55310     375.2936     282.4859   1427.55310     375.2936     282.4859
   1427.53784     377.8676     283.6227   1427.53784     377.8676     283.6227
   1427.52258     378.5642     285.2343   1427.52258     378.5642     285.2343
   1427.50732     381.2979     286.2449   1427.50732     381.2979     286.2449
   1427.49207     381.9741     288.0693   1427.49207     381.9741     288.0693
   1427.47681     383.5073     289.3719   1427.47681     383.5073     289.3719
   1427.46155     385.5920     290.9621   1427.46155     385.5920     290.9621
   1427.44629     386.7586     292.4228   1427.44629     386.7586     292.4228
   1427.43103     388.8523     293.6688   1427.43103     388.8523     293.6688
   1427.41577     390.6798     295.9260   1427.41577     390.6798     295.9260
   1427.40051     393.2159     297.6843   1427.40051     393.2159     297.6843
   1427.38525     394.3449     299.0677   1427.38525     394.3449     299.0677
   1427.37000     395.9101     300.7454   1427.37000     395.9101     300.7454
   1427.35474     398.2583     302.2633   1427.35474     398.2583     302.2633
   1427.33948     400.5877     304.2186   1427.33948     400.5877     304.2186
   1427.32422     402.6099     305.6666   1427.32422     402.6099     305.6666
   1427.30896     404.6271     308.1667   1427.30896     404.6271     308.1667
   1427.29370     406.4362     309.9749   1427.29370     406.4362     309.9749
   1427.27844     408.8425     311.2304   1427.27844     408.8425     311.2304
   1427.26318     411.2045     313.9167   1427.26318     411.2045     313.9167
   1427.24792     412.4126     315.7932   1427.24792     412.4126     315.7932
   1427.23267     415.1761     317.5795   1427.23267     415.1761     317.5795
   1427.21741     417.8147     319.8889   1427.21741     417.8147     319.8889
   1427.20215     419.9478     321.9043   1427.20215     419.9478     321.9043
   1427.18689     422.2917     323.9505   1427.18689     422.2917     323.9505
   1427.17163     425.3741     325.6666   1427.17163     425.3741     325.6666
   1427.15637     427.1663     327.5163   1427.15637     427.1663     327.5163
   1427.14111     429.4724     330.6191   1427.14111     429.4724     330.6191
   1427.12585     432.1902     332.2520   1427.12585     432.1902     332.2520
   1427.11060     434.8309     334.6781   1427.11060     434.8309     334.6781
   1427.09534     436.8907     336.8654   1427.09534     436.8907     336.8654
   1427.08008     440.2869     338.8742   1427.08008     440.2869     338.8742
   1427.06482     442.0704     340.7609   1427.06482     442.0704     340.7609
   1427.04956     445.3276     343.5737   1427.04956     445.3276     343.5737
   1427.03430     448.2784     346.0706   1427.03430     448.2784     346.0706
   1427.01904     450.5678     347.7008   1427.01904     450.5678     347.7008
   1427.00378     453.2596     350.1812   1427.00378     453.2596     350.1812
   1426.98853     455.9608     352.2691   1426.98853     455.9608     352.2691
   1426.97327     458.8316     354.7641   1426.97327     458.8316     354.7641
   1426.95801     461.6786     357.1996   1426.95801     461.6786     357.1996
   1426.94275     463.8606     359.2751   1426.94275     463.8606     359.2751
   1426.92749     466.3987     361.9478   1426.92749     466.3987     361.9478
   1426.91223     470.4216     364.6647   1426.91223     470.4216     364.6647
   1426.89697     472.6574     366.5197   1426.89697     472.6574     366.5197
   1426.88171     475.3559     369.1924   1426.88171     475.3559     369.1924
   1426.86646     478.3549     371.5913   1426.86646     478.3549     371.5913
   1426.85120     481.3410     374.3316   1426.85120     481.3410     374.3316
   1426.83594     484.1026     376.6030   1426.83594     484.1026     376.6030
   1426.82068     486.5306     379.3878   1426.82068     486.5306     379.3878
   1426.80542     489.4231     381.1421   1426.80542     489.4231     381.1421
   1426.79016     493.1273     384.0271   1426.79016     493.1273     384.0271
   1426.77490     496.0186     386.4633   1426.77490     496.0186     386.4633
   1426.75964     499.9065     389.4270   1426.75964     499.9065     389.4270
   1426.74438     502.0728     391.4448   1426.74438     502.0728     391.4448
   1426.72913     504.4961     394.3054   1426.72913     504.4961     394.3054
   1426.71387     507.0225     395.7780   1426.71387     507.0225     395.7780
   1426.69861     510.5199     398.1594   1426.69861     510.5199     398.1594
   1426.68335     513.0940     401.7262   1426.68335     513.0940     401.7262
   1426.66809     516.7081     403.7306   1426.66809     516.7081     403.7306
   1426.65283     518.8765     406.8040   1426.65283     518.8765     406.8040
   1426.63757     521.9488     408.7976   1426.63757     521.9488     408.7976
   1426.62231     525.5222     413.0807   1426.62231     525.5222     413.0807
   1426.60706     527.6789     414.0705   1426.60706     527.6789     414.0705
   1426.59180     531.0957     416.7581   1426.59180     531.0957     416.7581
   1426.57654     534.1093     419.1650   1426.57654     534.1093     419.1650
   1426.56128     537.0905     421.2990   1426.56128     537.0905     421.2990
   1426.54602     540.2605     423.8696   1426.54602     540.2605     423.8696
   1426.53076     542.3566     426.4504   1426.53076     542.3566     426.4504
   1426.51550     546.3469     428.6829   1426.51550     546.3469     428.6829
   1426.50024     549.1644     431.4081   1426.50024     549.1644     431.4081
   1426.48499     550.9896     433.8471   1426.48499     550.9896     433.8471
   1426.46973     553.8500     436.0964   1426.46973     553.8500     436.0964
   1426.45447     556.6519     438.5054   1426.45447     556.6519     438.5054
   1426.43921     559.3344     441.0573   1426.43921     559.3344     441.0573
   1426.42395     561.8030     444.5311   1426.42395     561.8030     444.5311
   1426.40869     565.6443     446.6937   1426.40869     565.6443     446.6937
   1426.39343     567.6203     448.4805   1426.39343     567.6203     448.4805
   1426.37817     571.4960     451.5161   1426.37817     571.4960     451.5161
   1426.36292     573.6523     454.3449   1426.36292     573.6523     454.3449
   1426.34766     576.3561     455.9933   1426.34766     576.3561     455.9933
   1426.33240     579.4359     459.2810   1426.33240     579.4359     459.2810
   1426.31714     582.5916     461.0839   1426.31714     582.5916     461.0839
   1426.30188     584.3710     464.5191   1426.30188     584.3710     464.5191
   1426.28662     587.5878     465.7072   1426.28662     587.5878     465.7072
   1426.27136     589.5458     467.8260   1426.27136     589.5458     467.8260
   1426.25610     593.2386     470.0193   1426.25610     593.2386     470.0193
   1426.24084     595.5972     472.9488   1426.24084     595.5972     472.9488
   1426.22559     597.5062     474.8846   1426.22559     597.5062     474.8846
   1426.21033     600.2379     477.2724   1426.21033     600.2379     477.2724
   1426.19507     602.8686     479.6240   1426.19507     602.8686     479.6240
   1426.17981     605.3820     481.9336   1426.17981     605.3820     481.9336
   1426.16455     607.8420     483.5410   1426.16455     607.8420     483.5410
   1426.14929     611.0220     486.9776   1426.14929     611.0220     486.9776
   1426.13403     613.1563     488.4401   1426.13403     613.1563     488.4401
   1426.11877     616.0217     490.7267   1426.11877     616.0217     490.7267
   1426.10352     617.7927     493.4044   1426.10352     617.7927     493.4044
   1426.08826     620.0066     495.0134   1426.08826     620.0066     495.0134
   1426.07300     622.6912     497.4741   1426.07300     622.6912     497.4741
   1426.05774     625.1479     499.8235   1426.05774     625.1479     499.8235
   1426.04248     628.0331     502.2658   1426.04248     628.0331     502.2658
   1426.02722     629.5907     504.4671   1426.02722     629.5907     504.4671
   1426.01196     632.5679     506.0378   1426.01196     632.5679     506.0378
   1425.99670     633.8949     507.9872   1425.99670     633.8949     507.9872
   1425.98145     636.8257     510.5382   1425.98145     636.8257     510.5382
   1425.96619     639.8839     512.3305   1425.96619     639.8839     512.3305
   1425.95093     642.0966     514.4566   1425.95093     642.0966     514.4566
   1425.93567     643.1940     516.3452   1425.93567     643.1940     516.3452
   1425.92041     645.6572     518.8111   1425.92041     645.6572     518.8111
   1425.90515     648.0765     520.6601   1425.90515     648.0765     520.6601
   1425.88989     650.2394     521.6973   1425.88989     650.2394     521.6973
   1425.87463     651.7028     525.0757   1425.87463     651.7028     525.0757
   1425.85938     654.0358     526.1049   1425.85938     654.0358     526.1049
   1425.84412     655.6812     527.4136   1425.84412     655.6812     527.4136
   1425.82886     658.8729     530.2070   1425.82886     658.8729     530.2070
   1425.81360     659.3484     532.8856   1425.81360     659.3484     532.8856
   1425.79834     661.0992     534.0443   1425.79834     661.0992     534.0443
   1425.78308     662.6650     536.4868   1425.78308     662.6650     536.4868
   1425.76782     664.9987     537.4993   1425.76782     664.9987     537.4993
   1425.75256     666.4979     539.5867   1425.75256     666.4979     539.5867
   1425.73730     669.4342     541.4376   1425.73730     669.4342     541.4376
   1425.72205     670.1945     543.5450   1425.72205     670.1945     543.5450
   1425.70679     671.8234     544.6377   1425.70679     671.8234     544.6377
   1425.69153     673.6585     547.2777   1425.69153     673.6585     547.2777
   1425.67627     675.3370     548.8121   1425.67627     675.3370     548.8121
   1425.66101     676.7778     550.6169   1425.66101     676.7778     550.6169
   1425.64575     679.5638     552.4012   1425.64575     679.5638     552.4012
   1425.63049     680.9581     552.9956   1425.63049     680.9581     552.9956
   1425.61523     681.5477     555.5052   1425.61523     681.5477     555.5052
   1425.59998     684.7025     555.9449   1425.59998     684.7025     555.9449
   1425.58472     685.5577     557.3695   1425.58472     685.5577     557.3695
   1425.56946     686.1251     559.6102   1425.56946     686.1251     559.6102
   1425.55420     687.3793     560.7696   1425.55420     687.3793     560.7696
   1425.53894     688.8761     562.8168   1425.53894     688.8761     562.8168
   1425.52368     690.7881     565.0417   1425.52368     690.7881     565.0417
   1425.50842     691.6257     566.0217   1425.50842     691.6257     566.0217
   1425.49316     692.0818     567.7480   1425.49316     692.0818     567.7480
   1425.47791     695.0461     569.0375   1425.47791     695.0461     569.0375
   1425.46265     695.4963     570.4860   1425.46265     695.4963     570.4860
   1425.44739     697.3435     571.5538   1425.44739     697.3435     571.5538
   1425.43213     698.6370     573.0844   1425.43213     698.6370     573.0844
   1425.41687     700.4940     575.7291   1425.41687     700.4940     575.7291
   1425.40161     700.4871     576.1075   1425.40161     700.4871     576.1075
   1425.38635     701.8486     575.7335   1425.38635     701.8486     575.7335
   1425.37109     702.8340     577.8457   1425.37109     702.8340     577.8457
   1425.35583     703.1915     578.7595   1425.35583     703.1915     578.7595
   1425.34058     704.2465     580.8710   1425.34058     704.2465     580.8710
   1425.32532     705.1320     581.9335   1425.32532     705.1320     581.9335
   1425.31006     706.3558     582.7397   1425.31006     706.3558     582.7397
   1425.29480     706.0769     584.2266   1425.29480     706.0769     584.2266
   1425.27954     708.6932     585.3017   1425.27954     708.6932     585.3017
   1425.26428     709.1513     587.0388   1425.26428     709.1513     587.0388
   1425.24902     710.1257     587.5117   1425.24902     710.1257     587.5117
   1425.23376     711.2532     588.4828   1425.23376     711.2532     588.4828
   1425.21851     711.8130     590.0680   1425.21851     711.8130     590.0680
   1425.20325     712.2169     590.7346   1425.20325     712.2169     590.7346
   1425.18799     712.7009     592.4432   1425.18799     712.7009     592.4432
   1425.17273     713.0469     593.1812   1425.17273     713.0469     593.1812
   1425.15747     713.3492     593.9718   1425.15747     713.3492     593.9718
   1425.14221     715.9069     595.4430   1425.14221     715.9069     595.4430
   1425.12695     715.7274     596.7057   1425.12695     715.7274     596.7057
   1425.11169     716.6573     597.7274   1425.11169     716.6573     597.7274
   1425.09644     716.9545     598.1769   1425.09644     716.9545     598.1769
   1425.08118     717.2682     599.0359   1425.08118     717.2682     599.0359
   1425.06592     718.3463     599.7408   1425.06592     718.3463     599.7408
   1425.05066     718.4210     601.1103   1425.05066     718.4210     601.1103
   1425.03540     719.4279     602.1641   1425.03540     719.4279     602.1641
   1425.02014     719.5630     602.6478   1425.02014     719.5630     602.6478
   1425.00488     719.6504     603.7786   1425.00488     719.6504     603.7786
   1424.98962     722.0302     603.6125   1424.98962     722.0302     603.6125
   1424.97437     719.7507     604.8406   1424.97437     719.7507     604.8406
   1424.95911     721.1559     606.6907   1424.95911     721.1559     606.6907
   1424.94385     722.8218     607.0060   1424.94385     722.8218     607.0060
   1424.92859     722.9172     607.5862   1424.92859     722.9172     607.5862
   1424.91333     723.5936     607.6268   1424.91333     723.5936     607.6268
   1424.89807     722.5321     608.2880   1424.89807     722.5321     608.2880
   1424.88281     722.8574     609.4886   1424.88281     722.8574     609.4886
   1424.86755     723.0847     609.7551   1424.86755     723.0847     609.7551
   1424.85229     722.6328     609.7260   1424.85229     722.6328     609.7260
   1424.83704     722.7405     610.2187   1424.83704     722.7405     610.2187
   1424.82178     724.0410     611.1801   1424.82178     724.0410     611.1801
   1424.80652     724.3017     613.5688   1424.80652     724.3017     613.5688
   1424.79126     724.1596     612.8881   1424.79126     724.1596     612.8881
   1424.77600     724.1008     614.1312   1424.77600     724.1008     614.1312
   1424.76074     724.5684     613.2670   1424.76074     724.5684     613.2670
   1424.74548     724.5390     615.3430   1424.74548     724.5390     615.3430
   1424.73022     724.9562     614.8364   1424.73022     724.9562     614.8364
   1424.71497     726.1983     615.7303   1424.71497     726.1983     615.7303
   1424.69971     724.8543     615.8478   1424.69971     724.8543     615.8478
   1424.68445     725.5143     615.6985   1424.68445     725.5143     615.6985
   1424.66919     725.0804     618.2756   1424.66919     725.0804     618.2756
   1424.65393     726.2751     617.5230   1424.65393     726.2751     617.5230
   1424.63867     724.8090     618.4830   1424.63867     724.8090     618.4830
   1424.62341     725.2534     618.4492   1424.62341     725.2534     618.4492
   1424.60815     725.9611     620.4573   1424.60815     725.9611     620.4573
   1424.59290     724.6113     619.9471   1424.59290     724.6113     619.9471
   1424.57764     724.1045     619.9915   1424.57764     724.1045     619.9915
   1424.56238     724.1132     619.1473   1424.56238     724.1132     619.1473
   1424.54712     725.1109     620.5030   1424.54712     725.1109     620.5030
   1424.53186     724.7301     620.7003   1424.53186     724.7301     620.7003
   1424.51660     725.5147     620.9277   1424.51660     725.5147     620.9277
   1424.50134     724.0341     621.5060   1424.50134     724.0341     621.5060
   1424.48608     725.1038     621.2199   1424.48608     725.1038     621.2199
   1424.47083     723.3220     622.0764   1424.47083     723.3220     622.0764
   1424.45557     724.8668     621.3523   1424.45557     724.8668     621.3523
   1424.44031     724.6115     622.8314   1424.44031     724.6115     622.8314
   1424.42505     723.8273     622.4671   1424.42505     723.8273     622.4671
   1424.40979     723.2230     622.9759   1424.40979     723.2230     622.9759
   1424.39453     723.4616     622.3961   1424.39453     723.4616     622.3961
   1424.37927     722.9445     622.6528   1424.37927     722.9445     622.6528
   1424.36401     723.4318     623.5021   1424.36401     723.4318     623.5021
   1424.34875     722.2820     623.7265   1424.34875     722.2820     623.7265
   1424.33350     722.9910     623.3768   1424.33350     722.9910     623.3768
   1424.31824     722.1047     623.6353   1424.31824     722.1047     623.6353
   1424.30298     721.8897     622.8806   1424.30298     721.8897     622.8806
   1424.28772     722.3000     624.3723   1424.28772     722.3000     624.3723
   1424.27246     722.1921     623.6408   1424.27246     722.1921     623.6408
   1424.25720     721.4933     624.7721   1424.25720     721.4933     624.7721
   1424.24194     722.0069     623.9052   1424.24194     722.0069     623.9052
   1424.22668     721.8605     624.3671   1424.22668     721.8605     624.3671
   1424.21143     720.9921     624.4638   1424.21143     720.9921     624.4638
   1424.19617     720.5215     624.4094   1424.19617     720.5215     624.4094
   1424.18091     720.3199     624.4841   1424.18091     720.3199     624.4841
   1424.16565     719.8427     624.2936   1424.16565     719.8427     624.2936
