#     FILENAME=!Skynet_57528_lach-hhg-103_20355_20910.cyb.fits
#     BASENAME=Skynet_57528_lach-hhg-103_20355_20910
#     SRC_NAME=lach-hhg-103
#     OBSERVER=hhgmadison16_9500
#     DATE_OBS=2016-05-20T15:29:31.500
#        OBSID=20355
#      SCANNUM=20910
#          MJD=57528.6465
#          UTC=55860
#     SCANTYPE=track
#     DATAMODE=HIRES
#     TUNEFREQ=1420.0000
# Actual_FREQ1=1420.0000
# Actual_FREQ2=1420.0000
#    LO1Tuning=6870.000
#     RFFILTER=1355_1435
#        OBSBW=-15.6250
#        NCHAN=1024 
#        FOCUS=37.0709
#           RA=22:17:37.70
#          DEC=56:47:27.70
#      RA(hrs)=22.293800
#     DEC(deg)=56.791000
#    AZIM(deg)=315.248
#    ELEV(deg)=48.955
#     IFattens=10.00, 9.00
#      WARNING=None
#    TCAL_XL1=7.9635
#    TCAL_YR1=9.1340
#    TCAL_XL2=7.9635
#    TCAL_YR2=9.1340
#     TRX_XL1=11.7060
#     TRX_YR1=11.7060
#     TRX_XL2=11.7060
#     TRX_YR2=11.7060
#        TAVE=1.0000
#Freq1(MHz)          XL1          YR1  Freq2(MHz)          XL2          YR2 

   1427.81250     377.7977     287.3369   1427.81250     377.7977     287.3369
   1427.79724     378.2279     287.8591   1427.79724     378.2279     287.8591
   1427.78198     379.4993     288.7111   1427.78198     379.4993     288.7111
   1427.76672     379.6568     289.6862   1427.76672     379.6568     289.6862
   1427.75146     380.7224     290.3702   1427.75146     380.7224     290.3702
   1427.73621     381.7119     291.5517   1427.73621     381.7119     291.5517
   1427.72095     383.1340     291.7604   1427.72095     383.1340     291.7604
   1427.70569     383.1579     293.5994   1427.70569     383.1579     293.5994
   1427.69043     385.2210     294.6013   1427.69043     385.2210     294.6013
   1427.67517     385.5910     295.1330   1427.67517     385.5910     295.1330
   1427.65991     387.7625     296.1478   1427.65991     387.7625     296.1478
   1427.64465     388.1787     297.5490   1427.64465     388.1787     297.5490
   1427.62939     390.0330     298.6250   1427.62939     390.0330     298.6250
   1427.61414     390.7166     300.0211   1427.61414     390.7166     300.0211
   1427.59888     391.7627     301.4108   1427.59888     391.7627     301.4108
   1427.58362     393.6485     302.6293   1427.58362     393.6485     302.6293
   1427.56836     394.7168     303.6205   1427.56836     394.7168     303.6205
   1427.55310     396.9532     305.0622   1427.55310     396.9532     305.0622
   1427.53784     398.4955     306.5040   1427.53784     398.4955     306.5040
   1427.52258     400.2467     308.1449   1427.52258     400.2467     308.1449
   1427.50732     402.5067     309.1974   1427.50732     402.5067     309.1974
   1427.49207     404.1405     310.6639   1427.49207     404.1405     310.6639
   1427.47681     405.7732     312.0693   1427.47681     405.7732     312.0693
   1427.46155     407.8107     314.7325   1427.46155     407.8107     314.7325
   1427.44629     408.8263     314.9095   1427.44629     408.8263     314.9095
   1427.43103     411.2947     316.4423   1427.43103     411.2947     316.4423
   1427.41577     413.4622     318.5430   1427.41577     413.4622     318.5430
   1427.40051     414.6036     319.9506   1427.40051     414.6036     319.9506
   1427.38525     416.6579     320.9327   1427.38525     416.6579     320.9327
   1427.37000     419.7138     322.6601   1427.37000     419.7138     322.6601
   1427.35474     421.9489     324.9754   1427.35474     421.9489     324.9754
   1427.33948     423.9593     326.4148   1427.33948     423.9593     326.4148
   1427.32422     426.1229     328.1865   1427.32422     426.1229     328.1865
   1427.30896     428.7194     330.0982   1427.30896     428.7194     330.0982
   1427.29370     430.6989     332.4287   1427.29370     430.6989     332.4287
   1427.27844     432.8360     333.8405   1427.27844     432.8360     333.8405
   1427.26318     435.5394     335.9859   1427.26318     435.5394     335.9859
   1427.24792     438.0034     338.1958   1427.24792     438.0034     338.1958
   1427.23267     440.7325     339.7526   1427.23267     440.7325     339.7526
   1427.21741     442.2932     341.0816   1427.21741     442.2932     341.0816
   1427.20215     444.6936     342.8420   1427.20215     444.6936     342.8420
   1427.18689     447.8272     345.3345   1427.18689     447.8272     345.3345
   1427.17163     449.7598     347.7122   1427.17163     449.7598     347.7122
   1427.15637     453.0165     349.5587   1427.15637     453.0165     349.5587
   1427.14111     455.7273     351.0729   1427.14111     455.7273     351.0729
   1427.12585     458.3105     353.8521   1427.12585     458.3105     353.8521
   1427.11060     460.5773     355.8779   1427.11060     460.5773     355.8779
   1427.09534     463.8784     357.4414   1427.09534     463.8784     357.4414
   1427.08008     467.0175     359.7110   1427.08008     467.0175     359.7110
   1427.06482     469.2505     362.4137   1427.06482     469.2505     362.4137
   1427.04956     472.3480     363.8721   1427.04956     472.3480     363.8721
   1427.03430     475.4659     365.9591   1427.03430     475.4659     365.9591
   1427.01904     477.7650     368.2057   1427.01904     477.7650     368.2057
   1427.00378     481.1523     370.6550   1427.00378     481.1523     370.6550
   1426.98853     483.5208     372.8011   1426.98853     483.5208     372.8011
   1426.97327     486.2408     374.4641   1426.97327     486.2408     374.4641
   1426.95801     489.2596     377.0586   1426.95801     489.2596     377.0586
   1426.94275     492.4933     379.2378   1426.94275     492.4933     379.2378
   1426.92749     495.9479     381.2477   1426.92749     495.9479     381.2477
   1426.91223     498.8994     383.5621   1426.91223     498.8994     383.5621
   1426.89697     501.2069     385.2231   1426.89697     501.2069     385.2231
   1426.88171     504.6589     387.5565   1426.88171     504.6589     387.5565
   1426.86646     506.9178     390.4020   1426.86646     506.9178     390.4020
   1426.85120     509.9436     392.0977   1426.85120     509.9436     392.0977
   1426.83594     513.1351     394.9925   1426.83594     513.1351     394.9925
   1426.82068     516.0764     397.0369   1426.82068     516.0764     397.0369
   1426.80542     519.6813     399.0742   1426.80542     519.6813     399.0742
   1426.79016     523.0558     400.4697   1426.79016     523.0558     400.4697
   1426.77490     525.8141     403.1680   1426.77490     525.8141     403.1680
   1426.75964     527.9200     405.7362   1426.75964     527.9200     405.7362
   1426.74438     531.3441     407.5250   1426.74438     531.3441     407.5250
   1426.72913     534.4550     410.0210   1426.72913     534.4550     410.0210
   1426.71387     537.3991     412.1392   1426.71387     537.3991     412.1392
   1426.69861     539.8262     414.7487   1426.69861     539.8262     414.7487
   1426.68335     542.6334     416.8772   1426.68335     542.6334     416.8772
   1426.66809     547.4781     418.9273   1426.66809     547.4781     418.9273
   1426.65283     550.5654     421.4537   1426.65283     550.5654     421.4537
   1426.63757     552.8607     423.9181   1426.63757     552.8607     423.9181
   1426.62231     557.8488     426.0301   1426.62231     557.8488     426.0301
   1426.60706     560.0810     428.3976   1426.60706     560.0810     428.3976
   1426.59180     562.7654     431.0059   1426.59180     562.7654     431.0059
   1426.57654     566.0722     432.1299   1426.57654     566.0722     432.1299
   1426.56128     568.5114     434.7139   1426.56128     568.5114     434.7139
   1426.54602     570.6953     436.7883   1426.54602     570.6953     436.7883
   1426.53076     574.5097     439.2014   1426.53076     574.5097     439.2014
   1426.51550     577.9205     441.7244   1426.51550     577.9205     441.7244
   1426.50024     580.7958     444.1526   1426.50024     580.7958     444.1526
   1426.48499     583.2374     445.8737   1426.48499     583.2374     445.8737
   1426.46973     586.4676     447.6260   1426.46973     586.4676     447.6260
   1426.45447     589.3963     450.1994   1426.45447     589.3963     450.1994
   1426.43921     591.2791     452.4128   1426.43921     591.2791     452.4128
   1426.42395     595.1716     455.2923   1426.42395     595.1716     455.2923
   1426.40869     597.9903     456.4334   1426.40869     597.9903     456.4334
   1426.39343     600.7748     458.6570   1426.39343     600.7748     458.6570
   1426.37817     603.8091     460.7976   1426.37817     603.8091     460.7976
   1426.36292     606.3126     463.0175   1426.36292     606.3126     463.0175
   1426.34766     609.8605     464.9688   1426.34766     609.8605     464.9688
   1426.33240     611.9147     467.3415   1426.33240     611.9147     467.3415
   1426.31714     615.2835     469.4381   1426.31714     615.2835     469.4381
   1426.30188     617.5732     472.0169   1426.30188     617.5732     472.0169
   1426.28662     620.8917     473.6859   1426.28662     620.8917     473.6859
   1426.27136     623.0202     475.6337   1426.27136     623.0202     475.6337
   1426.25610     626.3696     477.7868   1426.25610     626.3696     477.7868
   1426.24084     629.6786     479.0484   1426.24084     629.6786     479.0484
   1426.22559     632.8295     481.4812   1426.22559     632.8295     481.4812
   1426.21033     635.0886     484.1857   1426.21033     635.0886     484.1857
   1426.19507     637.0452     485.5753   1426.19507     637.0452     485.5753
   1426.17981     640.1319     487.2686   1426.17981     640.1319     487.2686
   1426.16455     642.0477     489.3700   1426.16455     642.0477     489.3700
   1426.14929     645.7313     490.9573   1426.14929     645.7313     490.9573
   1426.13403     647.8781     493.7744   1426.13403     647.8781     493.7744
   1426.11877     649.0381     494.6090   1426.11877     649.0381     494.6090
   1426.10352     652.5232     497.3022   1426.10352     652.5232     497.3022
   1426.08826     655.1655     498.6204   1426.08826     655.1655     498.6204
   1426.07300     657.1309     500.5044   1426.07300     657.1309     500.5044
   1426.05774     659.3065     502.2571   1426.05774     659.3065     502.2571
   1426.04248     662.4283     504.2022   1426.04248     662.4283     504.2022
   1426.02722     663.4470     506.7664   1426.02722     663.4470     506.7664
   1426.01196     667.3094     507.7111   1426.01196     667.3094     507.7111
   1425.99670     669.6013     509.8473   1425.99670     669.6013     509.8473
   1425.98145     670.9975     511.8090   1425.98145     670.9975     511.8090
   1425.96619     674.1644     513.1761   1425.96619     674.1644     513.1761
   1425.95093     675.0592     514.3039   1425.95093     675.0592     514.3039
   1425.93567     676.9749     515.8007   1425.93567     676.9749     515.8007
   1425.92041     679.6779     518.8467   1425.92041     679.6779     518.8467
   1425.90515     683.2980     520.6157   1425.90515     683.2980     520.6157
   1425.88989     684.0583     521.9716   1425.88989     684.0583     521.9716
   1425.87463     686.5824     524.1200   1425.87463     686.5824     524.1200
   1425.85938     688.5945     524.3418   1425.85938     688.5945     524.3418
   1425.84412     689.7305     526.6204   1425.84412     689.7305     526.6204
   1425.82886     691.8965     528.2071   1425.82886     691.8965     528.2071
   1425.81360     693.2747     530.3180   1425.81360     693.2747     530.3180
   1425.79834     695.9279     531.5189   1425.79834     695.9279     531.5189
   1425.78308     697.6019     534.0192   1425.78308     697.6019     534.0192
   1425.76782     699.4323     535.0927   1425.76782     699.4323     535.0927
   1425.75256     701.4877     536.6578   1425.75256     701.4877     536.6578
   1425.73730     702.1931     537.5172   1425.73730     702.1931     537.5172
   1425.72205     704.4886     540.0169   1425.72205     704.4886     540.0169
   1425.70679     706.5674     541.6978   1425.70679     706.5674     541.6978
   1425.69153     708.6409     542.2009   1425.69153     708.6409     542.2009
   1425.67627     709.7977     545.1768   1425.67627     709.7977     545.1768
   1425.66101     712.1161     545.1077   1425.66101     712.1161     545.1077
   1425.64575     714.1117     546.9595   1425.64575     714.1117     546.9595
   1425.63049     714.1002     548.9810   1425.63049     714.1002     548.9810
   1425.61523     715.7017     549.7342   1425.61523     715.7017     549.7342
   1425.59998     716.3294     551.8612   1425.59998     716.3294     551.8612
   1425.58472     718.9438     553.2026   1425.58472     718.9438     553.2026
   1425.56946     719.6381     553.8401   1425.56946     719.6381     553.8401
   1425.55420     721.7259     555.9067   1425.55420     721.7259     555.9067
   1425.53894     722.4664     557.2733   1425.53894     722.4664     557.2733
   1425.52368     723.9323     558.7718   1425.52368     723.9323     558.7718
   1425.50842     725.5906     558.7178   1425.50842     725.5906     558.7178
   1425.49316     727.1870     559.8278   1425.49316     727.1870     559.8278
   1425.47791     726.7930     562.2593   1425.47791     726.7930     562.2593
   1425.46265     728.4666     563.6097   1425.46265     728.4666     563.6097
   1425.44739     730.4677     565.0746   1425.44739     730.4677     565.0746
   1425.43213     731.1501     566.2017   1425.43213     731.1501     566.2017
   1425.41687     732.7525     567.8073   1425.41687     732.7525     567.8073
   1425.40161     732.8824     568.2719   1425.40161     732.8824     568.2719
   1425.38635     735.0864     570.4102   1425.38635     735.0864     570.4102
   1425.37109     735.2714     570.9771   1425.37109     735.2714     570.9771
   1425.35583     735.5919     572.4310   1425.35583     735.5919     572.4310
   1425.34058     736.7766     572.4174   1425.34058     736.7766     572.4174
   1425.32532     738.6970     574.2556   1425.32532     738.6970     574.2556
   1425.31006     738.8394     575.4453   1425.31006     738.8394     575.4453
   1425.29480     739.5967     576.6915   1425.29480     739.5967     576.6915
   1425.27954     741.3354     577.7883   1425.27954     741.3354     577.7883
   1425.26428     741.8826     579.0579   1425.26428     741.8826     579.0579
   1425.24902     742.3585     579.9042   1425.24902     742.3585     579.9042
   1425.23376     742.9920     579.2281   1425.23376     742.9920     579.2281
   1425.21851     744.5206     582.2672   1425.21851     744.5206     582.2672
   1425.20325     744.5199     583.1920   1425.20325     744.5199     583.1920
   1425.18799     746.8512     584.2175   1425.18799     746.8512     584.2175
   1425.17273     746.0901     584.5196   1425.17273     746.0901     584.5196
   1425.15747     746.7105     587.0132   1425.15747     746.7105     587.0132
   1425.14221     747.0635     588.0284   1425.14221     747.0635     588.0284
   1425.12695     748.3300     587.9390   1425.12695     748.3300     587.9390
   1425.11169     748.3133     589.9410   1425.11169     748.3133     589.9410
   1425.09644     749.5776     591.2672   1425.09644     749.5776     591.2672
   1425.08118     749.2803     591.7850   1425.08118     749.2803     591.7850
   1425.06592     748.4513     593.4183   1425.06592     748.4513     593.4183
   1425.05066     749.7089     594.0221   1425.05066     749.7089     594.0221
   1425.03540     750.2191     593.8483   1425.03540     750.2191     593.8483
   1425.02014     750.6006     595.0157   1425.02014     750.6006     595.0157
   1425.00488     751.2943     596.2633   1425.00488     751.2943     596.2633
   1424.98962     751.7067     597.1266   1424.98962     751.7067     597.1266
   1424.97437     751.8137     597.5273   1424.97437     751.8137     597.5273
   1424.95911     752.9281     598.7744   1424.95911     752.9281     598.7744
   1424.94385     753.4763     600.0687   1424.94385     753.4763     600.0687
   1424.92859     752.5093     600.0167   1424.92859     752.5093     600.0167
   1424.91333     753.5947     600.5853   1424.91333     753.5947     600.5853
   1424.89807     754.0374     602.1757   1424.89807     754.0374     602.1757
   1424.88281     754.2161     602.5938   1424.88281     754.2161     602.5938
   1424.86755     755.0239     603.6967   1424.86755     755.0239     603.6967
   1424.85229     753.8210     605.5187   1424.85229     753.8210     605.5187
   1424.83704     754.8927     605.6858   1424.83704     754.8927     605.6858
   1424.82178     752.9365     606.0845   1424.82178     752.9365     606.0845
   1424.80652     754.5109     606.7810   1424.80652     754.5109     606.7810
   1424.79126     755.6814     608.8292   1424.79126     755.6814     608.8292
   1424.77600     755.4852     608.8824   1424.77600     755.4852     608.8824
   1424.76074     755.1637     609.5830   1424.76074     755.1637     609.5830
   1424.74548     755.3596     609.6661   1424.74548     755.3596     609.6661
   1424.73022     755.6778     610.8719   1424.73022     755.6778     610.8719
   1424.71497     755.0635     610.9736   1424.71497     755.0635     610.9736
   1424.69971     755.7778     613.1543   1424.69971     755.7778     613.1543
   1424.68445     754.9083     613.6364   1424.68445     754.9083     613.6364
   1424.66919     756.5331     613.4243   1424.66919     756.5331     613.4243
   1424.65393     755.1746     614.2294   1424.65393     755.1746     614.2294
   1424.63867     756.1511     615.5714   1424.63867     756.1511     615.5714
   1424.62341     755.4319     615.6138   1424.62341     755.4319     615.6138
   1424.60815     755.8214     616.6458   1424.60815     755.8214     616.6458
   1424.59290     756.1517     617.7140   1424.59290     756.1517     617.7140
   1424.57764     756.0676     617.8173   1424.57764     756.0676     617.8173
   1424.56238     754.9068     619.4646   1424.56238     754.9068     619.4646
   1424.54712     754.8063     620.4542   1424.54712     754.8063     620.4542
   1424.53186     754.7603     619.3461   1424.53186     754.7603     619.3461
   1424.51660     755.3293     620.3501   1424.51660     755.3293     620.3501
   1424.50134     755.2439     621.1343   1424.50134     755.2439     621.1343
   1424.48608     754.8142     621.9530   1424.48608     754.8142     621.9530
   1424.47083     755.4295     623.2742   1424.47083     755.4295     623.2742
   1424.45557     755.2886     622.9067   1424.45557     755.2886     622.9067
   1424.44031     754.0652     623.0618   1424.44031     754.0652     623.0618
   1424.42505     753.6248     624.6691   1424.42505     753.6248     624.6691
   1424.40979     754.0156     624.2404   1424.40979     754.0156     624.2404
   1424.39453     754.0629     624.9994   1424.39453     754.0629     624.9994
   1424.37927     753.5739     625.2206   1424.37927     753.5739     625.2206
   1424.36401     753.4364     626.3062   1424.36401     753.4364     626.3062
   1424.34875     753.6273     626.3766   1424.34875     753.6273     626.3766
   1424.33350     753.6254     627.1917   1424.33350     753.6254     627.1917
   1424.31824     753.0524     628.0657   1424.31824     753.0524     628.0657
   1424.30298     752.4921     629.0432   1424.30298     752.4921     629.0432
   1424.28772     750.9842     629.9697   1424.28772     750.9842     629.9697
   1424.27246     751.3473     629.0121   1424.27246     751.3473     629.0121
   1424.25720     751.8357     629.6532   1424.25720     751.8357     629.6532
   1424.24194     752.5652     630.1801   1424.24194     752.5652     630.1801
   1424.22668     751.9525     631.2122   1424.22668     751.9525     631.2122
   1424.21143     750.0414     631.2530   1424.21143     750.0414     631.2530
   1424.19617     751.3041     632.4471   1424.19617     751.3041     632.4471
   1424.18091     751.2600     631.8736   1424.18091     751.2600     631.8736
   1424.16565     752.2377     632.3483   1424.16565     752.2377     632.3483
