#     FILENAME=!Skynet_57528_lach-cc-183_20574_21006.cyb.fits
#     BASENAME=Skynet_57528_lach-cc-183_20574_21006
#     SRC_NAME=lach-cc-183
#     OBSERVER=ccmadison16_9505
#     DATE_OBS=2016-05-20T18:46:13.430
#        OBSID=20574
#      SCANNUM=21006
#          MJD=57528.7831
#          UTC=67662
#     SCANTYPE=track
#     DATAMODE=HIRES
#     TUNEFREQ=1420.0000
# Actual_FREQ1=1420.0000
# Actual_FREQ2=1420.0000
#    LO1Tuning=6870.000
#     RFFILTER=1355_1435
#        OBSBW=-15.6250
#        NCHAN=1024 
#        FOCUS=37.0709
#           RA=05:52:33.78
#          DEC=26:21:48.91
#      RA(hrs)=5.875900
#     DEC(deg)=26.363600
#    AZIM(deg)=148.692
#    ELEV(deg)=76.149
#     IFattens=10.00, 9.00
#      WARNING=None
#    TCAL_XL1=7.9635
#    TCAL_YR1=9.1340
#    TCAL_XL2=7.9635
#    TCAL_YR2=9.1340
#     TRX_XL1=11.7060
#     TRX_YR1=11.7060
#     TRX_XL2=11.7060
#     TRX_YR2=11.7060
#        TAVE=1.0000
#Freq1(MHz)          XL1          YR1  Freq2(MHz)          XL2          YR2 

   1427.81250     376.1920     345.8256   1427.81250     376.1920     345.8256
   1427.79724     377.3521     346.8495   1427.79724     377.3521     346.8495
   1427.78198     377.8905     348.9819   1427.78198     377.8905     348.9819
   1427.76672     378.6666     350.1489   1427.76672     378.6666     350.1489
   1427.75146     378.8845     351.4781   1427.75146     378.8845     351.4781
   1427.73621     379.7062     352.7751   1427.73621     379.7062     352.7751
   1427.72095     381.3227     354.8441   1427.72095     381.3227     354.8441
   1427.70569     381.9662     355.9055   1427.70569     381.9662     355.9055
   1427.69043     382.7104     357.5654   1427.69043     382.7104     357.5654
   1427.67517     383.7352     359.4771   1427.67517     383.7352     359.4771
   1427.65991     384.6160     361.3432   1427.65991     384.6160     361.3432
   1427.64465     386.2646     362.0912   1427.64465     386.2646     362.0912
   1427.62939     387.1856     364.7510   1427.62939     387.1856     364.7510
   1427.61414     388.7206     366.3800   1427.61414     388.7206     366.3800
   1427.59888     389.9004     367.8934   1427.59888     389.9004     367.8934
   1427.58362     391.1459     370.2690   1427.58362     391.1459     370.2690
   1427.56836     392.8423     371.8394   1427.56836     392.8423     371.8394
   1427.55310     393.7668     373.3313   1427.55310     393.7668     373.3313
   1427.53784     395.0371     374.9555   1427.53784     395.0371     374.9555
   1427.52258     396.7583     378.2830   1427.52258     396.7583     378.2830
   1427.50732     398.5177     380.0772   1427.50732     398.5177     380.0772
   1427.49207     400.4729     381.8250   1427.49207     400.4729     381.8250
   1427.47681     402.5457     384.3983   1427.47681     402.5457     384.3983
   1427.46155     403.9438     386.7681   1427.46155     403.9438     386.7681
   1427.44629     405.5950     387.9365   1427.44629     405.5950     387.9365
   1427.43103     406.7383     389.6681   1427.43103     406.7383     389.6681
   1427.41577     408.8305     392.1140   1427.41577     408.8305     392.1140
   1427.40051     411.1531     394.6180   1427.40051     411.1531     394.6180
   1427.38525     412.7013     396.6302   1427.38525     412.7013     396.6302
   1427.37000     415.3168     398.9808   1427.37000     415.3168     398.9808
   1427.35474     416.6786     400.8960   1427.35474     416.6786     400.8960
   1427.33948     418.7372     403.4731   1427.33948     418.7372     403.4731
   1427.32422     422.4146     405.4865   1427.32422     422.4146     405.4865
   1427.30896     423.2204     407.8638   1427.30896     423.2204     407.8638
   1427.29370     425.7434     409.9816   1427.29370     425.7434     409.9816
   1427.27844     428.1738     412.0253   1427.27844     428.1738     412.0253
   1427.26318     430.4900     414.2425   1427.26318     430.4900     414.2425
   1427.24792     432.5510     416.5826   1427.24792     432.5510     416.5826
   1427.23267     434.7550     419.0293   1427.23267     434.7550     419.0293
   1427.21741     437.6507     420.8404   1427.21741     437.6507     420.8404
   1427.20215     439.3529     424.2270   1427.20215     439.3529     424.2270
   1427.18689     442.5842     426.3099   1427.18689     442.5842     426.3099
   1427.17163     445.0841     429.0792   1427.17163     445.0841     429.0792
   1427.15637     447.0868     430.5089   1427.15637     447.0868     430.5089
   1427.14111     450.3456     433.5787   1427.14111     450.3456     433.5787
   1427.12585     452.8835     435.3772   1427.12585     452.8835     435.3772
   1427.11060     454.7451     438.4329   1427.11060     454.7451     438.4329
   1427.09534     457.6469     440.8361   1427.09534     457.6469     440.8361
   1427.08008     460.5830     443.4032   1427.08008     460.5830     443.4032
   1427.06482     463.6570     445.3935   1427.06482     463.6570     445.3935
   1427.04956     465.9636     448.5991   1427.04956     465.9636     448.5991
   1427.03430     467.8647     450.7439   1427.03430     467.8647     450.7439
   1427.01904     471.6476     453.1166   1427.01904     471.6476     453.1166
   1427.00378     474.4990     455.1187   1427.00378     474.4990     455.1187
   1426.98853     476.7849     457.1028   1426.98853     476.7849     457.1028
   1426.97327     479.9819     460.4608   1426.97327     479.9819     460.4608
   1426.95801     482.1481     462.6551   1426.95801     482.1481     462.6551
   1426.94275     485.8981     465.0230   1426.94275     485.8981     465.0230
   1426.92749     488.0506     466.9290   1426.92749     488.0506     466.9290
   1426.91223     491.4446     469.4957   1426.91223     491.4446     469.4957
   1426.89697     494.3324     472.0020   1426.89697     494.3324     472.0020
   1426.88171     497.9640     474.7792   1426.88171     497.9640     474.7792
   1426.86646     500.0402     476.9534   1426.86646     500.0402     476.9534
   1426.85120     503.1899     479.0312   1426.85120     503.1899     479.0312
   1426.83594     506.4196     481.4713   1426.83594     506.4196     481.4713
   1426.82068     509.7653     483.6696   1426.82068     509.7653     483.6696
   1426.80542     513.5980     486.1644   1426.80542     513.5980     486.1644
   1426.79016     515.2685     488.1023   1426.79016     515.2685     488.1023
   1426.77490     518.5302     491.4973   1426.77490     518.5302     491.4973
   1426.75964     522.6672     493.3390   1426.75964     522.6672     493.3390
   1426.74438     525.6327     495.1540   1426.74438     525.6327     495.1540
   1426.72913     528.6149     498.0433   1426.72913     528.6149     498.0433
   1426.71387     530.4175     499.6554   1426.71387     530.4175     499.6554
   1426.69861     534.8288     502.9764   1426.69861     534.8288     502.9764
   1426.68335     537.1934     505.0673   1426.68335     537.1934     505.0673
   1426.66809     541.1342     507.0718   1426.66809     541.1342     507.0718
   1426.65283     544.9377     509.7843   1426.65283     544.9377     509.7843
   1426.63757     547.0775     512.3818   1426.63757     547.0775     512.3818
   1426.62231     550.9844     515.1641   1426.62231     550.9844     515.1641
   1426.60706     552.5135     516.7099   1426.60706     552.5135     516.7099
   1426.59180     556.5027     518.8557   1426.59180     556.5027     518.8557
   1426.57654     559.3073     520.9001   1426.57654     559.3073     520.9001
   1426.56128     561.8732     522.1048   1426.56128     561.8732     522.1048
   1426.54602     565.5939     523.9736   1426.54602     565.5939     523.9736
   1426.53076     568.4592     528.1282   1426.53076     568.4592     528.1282
   1426.51550     571.6269     529.8314   1426.51550     571.6269     529.8314
   1426.50024     575.3453     531.4763   1426.50024     575.3453     531.4763
   1426.48499     578.1856     532.9358   1426.48499     578.1856     532.9358
   1426.46973     580.4440     535.6237   1426.46973     580.4440     535.6237
   1426.45447     584.3619     538.5088   1426.45447     584.3619     538.5088
   1426.43921     587.7118     539.5367   1426.43921     587.7118     539.5367
   1426.42395     590.3005     541.0278   1426.42395     590.3005     541.0278
   1426.40869     593.7062     543.9235   1426.40869     593.7062     543.9235
   1426.39343     596.4866     545.3611   1426.39343     596.4866     545.3611
   1426.37817     599.0522     547.4693   1426.37817     599.0522     547.4693
   1426.36292     602.8029     549.8828   1426.36292     602.8029     549.8828
   1426.34766     606.2659     551.8964   1426.34766     606.2659     551.8964
   1426.33240     608.8148     554.1708   1426.33240     608.8148     554.1708
   1426.31714     612.1376     554.8831   1426.31714     612.1376     554.8831
   1426.30188     614.6275     556.8838   1426.30188     614.6275     556.8838
   1426.28662     617.4732     560.1679   1426.28662     617.4732     560.1679
   1426.27136     619.8555     561.1895   1426.27136     619.8555     561.1895
   1426.25610     623.0752     563.0385   1426.25610     623.0752     563.0385
   1426.24084     625.7307     563.3787   1426.24084     625.7307     563.3787
   1426.22559     629.0134     566.7464   1426.22559     629.0134     566.7464
   1426.21033     632.1844     568.4245   1426.21033     632.1844     568.4245
   1426.19507     634.9363     570.1431   1426.19507     634.9363     570.1431
   1426.17981     638.5739     571.7214   1426.17981     638.5739     571.7214
   1426.16455     640.6269     573.0856   1426.16455     640.6269     573.0856
   1426.14929     643.6824     575.1573   1426.14929     643.6824     575.1573
   1426.13403     645.8315     576.4795   1426.13403     645.8315     576.4795
   1426.11877     649.5107     578.9252   1426.11877     649.5107     578.9252
   1426.10352     651.9428     579.4478   1426.10352     651.9428     579.4478
   1426.08826     653.1420     581.7343   1426.08826     653.1420     581.7343
   1426.07300     656.5215     583.2762   1426.07300     656.5215     583.2762
   1426.05774     659.4709     585.1498   1426.05774     659.4709     585.1498
   1426.04248     662.1898     587.3253   1426.04248     662.1898     587.3253
   1426.02722     665.8492     587.9193   1426.02722     665.8492     587.9193
   1426.01196     666.8467     590.3001   1426.01196     666.8467     590.3001
   1425.99670     669.5767     591.2359   1425.99670     669.5767     591.2359
   1425.98145     671.0468     592.5112   1425.98145     671.0468     592.5112
   1425.96619     674.6385     593.0614   1425.96619     674.6385     593.0614
   1425.95093     677.2702     597.1009   1425.95093     677.2702     597.1009
   1425.93567     679.5558     595.8043   1425.93567     679.5558     595.8043
   1425.92041     681.4720     597.3440   1425.92041     681.4720     597.3440
   1425.90515     684.0153     600.0955   1425.90515     684.0153     600.0955
   1425.88989     686.5618     600.6293   1425.88989     686.5618     600.6293
   1425.87463     688.8187     602.1719   1425.87463     688.8187     602.1719
   1425.85938     691.1515     603.7869   1425.85938     691.1515     603.7869
   1425.84412     693.7969     605.2256   1425.84412     693.7969     605.2256
   1425.82886     694.6273     605.8446   1425.82886     694.6273     605.8446
   1425.81360     697.1465     607.0012   1425.81360     697.1465     607.0012
   1425.79834     700.7891     608.0196   1425.79834     700.7891     608.0196
   1425.78308     701.6555     609.8571   1425.78308     701.6555     609.8571
   1425.76782     702.8449     610.4958   1425.76782     702.8449     610.4958
   1425.75256     705.0568     612.5557   1425.75256     705.0568     612.5557
   1425.73730     707.2200     613.0557   1425.73730     707.2200     613.0557
   1425.72205     709.8826     613.6757   1425.72205     709.8826     613.6757
   1425.70679     710.6124     616.0433   1425.70679     710.6124     616.0433
   1425.69153     714.0403     616.5336   1425.69153     714.0403     616.5336
   1425.67627     715.4164     618.2797   1425.67627     715.4164     618.2797
   1425.66101     717.1810     618.5316   1425.66101     717.1810     618.5316
   1425.64575     720.3942     619.7290   1425.64575     720.3942     619.7290
   1425.63049     720.8700     620.1769   1425.63049     720.8700     620.1769
   1425.61523     723.0063     621.3544   1425.61523     723.0063     621.3544
   1425.59998     724.4614     622.4048   1425.59998     724.4614     622.4048
   1425.58472     726.6532     622.3199   1425.58472     726.6532     622.3199
   1425.56946     726.9756     623.2872   1425.56946     726.9756     623.2872
   1425.55420     729.1619     624.9044   1425.55420     729.1619     624.9044
   1425.53894     730.5229     624.9404   1425.53894     730.5229     624.9404
   1425.52368     732.2265     626.1025   1425.52368     732.2265     626.1025
   1425.50842     734.0364     626.7782   1425.50842     734.0364     626.7782
   1425.49316     735.3874     627.4716   1425.49316     735.3874     627.4716
   1425.47791     736.5778     629.3033   1425.47791     736.5778     629.3033
   1425.46265     738.1066     628.7918   1425.46265     738.1066     628.7918
   1425.44739     739.6404     630.0889   1425.44739     739.6404     630.0889
   1425.43213     740.6677     630.1497   1425.43213     740.6677     630.1497
   1425.41687     743.2444     631.2391   1425.41687     743.2444     631.2391
   1425.40161     744.8540     632.4459   1425.40161     744.8540     632.4459
   1425.38635     745.5040     632.6692   1425.38635     745.5040     632.6692
   1425.37109     746.1360     632.5235   1425.37109     746.1360     632.5235
   1425.35583     747.4067     633.7980   1425.35583     747.4067     633.7980
   1425.34058     748.4307     633.7684   1425.34058     748.4307     633.7684
   1425.32532     749.6777     634.7863   1425.32532     749.6777     634.7863
   1425.31006     750.3461     635.1057   1425.31006     750.3461     635.1057
   1425.29480     752.0623     635.3344   1425.29480     752.0623     635.3344
   1425.27954     752.9140     634.7812   1425.27954     752.9140     634.7812
   1425.26428     753.7626     637.1989   1425.26428     753.7626     637.1989
   1425.24902     753.7524     635.6478   1425.24902     753.7524     635.6478
   1425.23376     755.5922     637.4553   1425.23376     755.5922     637.4553
   1425.21851     755.7413     637.7419   1425.21851     755.7413     637.7419
   1425.20325     757.2672     637.6241   1425.20325     757.2672     637.6241
   1425.18799     756.8554     636.6362   1425.18799     756.8554     636.6362
   1425.17273     758.7360     638.7917   1425.17273     758.7360     638.7917
   1425.15747     759.3685     639.1156   1425.15747     759.3685     639.1156
   1425.14221     759.9822     638.8908   1425.14221     759.9822     638.8908
   1425.12695     763.0882     638.5540   1425.12695     763.0882     638.5540
   1425.11169     761.3282     639.0059   1425.11169     761.3282     639.0059
   1425.09644     762.5499     639.8734   1425.09644     762.5499     639.8734
   1425.08118     762.7958     639.6420   1425.08118     762.7958     639.6420
   1425.06592     763.4838     639.2714   1425.06592     763.4838     639.2714
   1425.05066     764.3206     640.9069   1425.05066     764.3206     640.9069
   1425.03540     764.3207     640.8135   1425.03540     764.3207     640.8135
   1425.02014     765.4020     640.7780   1425.02014     765.4020     640.7780
   1425.00488     764.5875     642.3997   1425.00488     764.5875     642.3997
   1424.98962     767.2969     640.8342   1424.98962     767.2969     640.8342
   1424.97437     766.9398     641.2570   1424.97437     766.9398     641.2570
   1424.95911     765.8650     641.3314   1424.95911     765.8650     641.3314
   1424.94385     767.9768     640.5069   1424.94385     767.9768     640.5069
   1424.92859     768.7460     640.1496   1424.92859     768.7460     640.1496
   1424.91333     768.6519     639.8909   1424.91333     768.6519     639.8909
   1424.89807     768.8703     640.5501   1424.89807     768.8703     640.5501
   1424.88281     769.4383     641.4566   1424.88281     769.4383     641.4566
   1424.86755     769.6570     640.0605   1424.86755     769.6570     640.0605
   1424.85229     768.4505     640.7304   1424.85229     768.4505     640.7304
   1424.83704     769.5551     641.4325   1424.83704     769.5551     641.4325
   1424.82178     768.8907     641.1589   1424.82178     768.8907     641.1589
   1424.80652     769.1825     640.7006   1424.80652     769.1825     640.7006
   1424.79126     768.7212     640.2834   1424.79126     768.7212     640.2834
   1424.77600     771.2504     639.2230   1424.77600     771.2504     639.2230
   1424.76074     770.3559     639.3350   1424.76074     770.3559     639.3350
   1424.74548     769.9943     638.9831   1424.74548     769.9943     638.9831
   1424.73022     771.3999     638.7783   1424.73022     771.3999     638.7783
   1424.71497     768.9977     639.4316   1424.71497     768.9977     639.4316
   1424.69971     770.0635     639.0197   1424.69971     770.0635     639.0197
   1424.68445     770.2482     638.7626   1424.68445     770.2482     638.7626
   1424.66919     769.3743     638.0663   1424.66919     769.3743     638.0663
   1424.65393     770.7360     638.4044   1424.65393     770.7360     638.4044
   1424.63867     770.0323     637.7310   1424.63867     770.0323     637.7310
   1424.62341     769.7763     638.3207   1424.62341     769.7763     638.3207
   1424.60815     769.5905     636.9573   1424.60815     769.5905     636.9573
   1424.59290     770.2033     637.0483   1424.59290     770.2033     637.0483
   1424.57764     771.4045     636.6873   1424.57764     771.4045     636.6873
   1424.56238     770.2258     636.2656   1424.56238     770.2258     636.2656
   1424.54712     768.4025     635.5403   1424.54712     768.4025     635.5403
   1424.53186     768.7416     635.3411   1424.53186     768.7416     635.3411
   1424.51660     769.4974     634.8673   1424.51660     769.4974     634.8673
   1424.50134     767.7747     635.9719   1424.50134     767.7747     635.9719
   1424.48608     770.0409     634.0823   1424.48608     770.0409     634.0823
   1424.47083     769.0084     634.4272   1424.47083     769.0084     634.4272
   1424.45557     768.3788     633.5573   1424.45557     768.3788     633.5573
   1424.44031     769.2385     632.1365   1424.44031     769.2385     632.1365
   1424.42505     767.6716     632.9792   1424.42505     767.6716     632.9792
   1424.40979     767.3728     631.3535   1424.40979     767.3728     631.3535
   1424.39453     768.0257     631.8299   1424.39453     768.0257     631.8299
   1424.37927     767.1453     630.5969   1424.37927     767.1453     630.5969
   1424.36401     766.6518     630.1556   1424.36401     766.6518     630.1556
   1424.34875     766.4023     631.0443   1424.34875     766.4023     631.0443
   1424.33350     766.1793     630.6433   1424.33350     766.1793     630.6433
   1424.31824     765.2698     630.0450   1424.31824     765.2698     630.0450
   1424.30298     766.0842     628.6514   1424.30298     766.0842     628.6514
   1424.28772     764.8633     628.4445   1424.28772     764.8633     628.4445
   1424.27246     765.0312     627.7474   1424.27246     765.0312     627.7474
   1424.25720     764.3270     627.4030   1424.25720     764.3270     627.4030
   1424.24194     763.5549     626.1429   1424.24194     763.5549     626.1429
   1424.22668     763.8365     625.7920   1424.22668     763.8365     625.7920
   1424.21143     763.5005     624.9697   1424.21143     763.5005     624.9697
   1424.19617     761.7224     623.5375   1424.19617     761.7224     623.5375
   1424.18091     763.1813     624.6299   1424.18091     763.1813     624.6299
   1424.16565     761.8624     623.9589   1424.16565     761.8624     623.9589
