#     FILENAME=!Skynet_57533_lach-hhg-198-2_20805_21205.cyb.fits
#     BASENAME=Skynet_57533_lach-hhg-198-2_20805_21205
#     SRC_NAME=lach-hhg-198-2
#     OBSERVER=ccmadison16_9505
#     DATE_OBS=2016-05-25T18:27:45.870
#        OBSID=20805
#      SCANNUM=21205
#          MJD=57533.7703
#          UTC=66555
#     SCANTYPE=track
#     DATAMODE=HIRES
#     TUNEFREQ=1420.0000
# Actual_FREQ1=1420.0000
# Actual_FREQ2=1420.0000
#    LO1Tuning=6870.000
#     RFFILTER=1355_1435
#        OBSBW=-15.6250
#        NCHAN=1024 
#        FOCUS=37.0709
#           RA=06:23:39.17
#          DEC=13:15:21.35
#      RA(hrs)=6.394200
#     DEC(deg)=13.255900
#    AZIM(deg)=147.115
#    ELEV(deg)=61.268
#     IFattens=10.00, 9.00
#      WARNING=None
#    TCAL_XL1=7.9635
#    TCAL_YR1=9.1340
#    TCAL_XL2=7.9635
#    TCAL_YR2=9.1340
#     TRX_XL1=11.7060
#     TRX_YR1=11.7060
#     TRX_XL2=11.7060
#     TRX_YR2=11.7060
#        TAVE=1.0000
#Freq1(MHz)          XL1          YR1  Freq2(MHz)          XL2          YR2 

   1427.81250     362.5891     256.3173   1427.81250     362.5891     256.3173
   1427.79724     363.2939     256.5748   1427.79724     363.2939     256.5748
   1427.78198     363.9498     257.7614   1427.78198     363.9498     257.7614
   1427.76672     364.5878     259.1697   1427.76672     364.5878     259.1697
   1427.75146     365.3029     260.2004   1427.75146     365.3029     260.2004
   1427.73621     366.2383     260.7948   1427.73621     366.2383     260.7948
   1427.72095     367.3249     262.3033   1427.72095     367.3249     262.3033
   1427.70569     368.0661     263.6204   1427.70569     368.0661     263.6204
   1427.69043     368.5957     264.7029   1427.69043     368.5957     264.7029
   1427.67517     370.0411     265.1932   1427.67517     370.0411     265.1932
   1427.65991     371.5113     266.5172   1427.65991     371.5113     266.5172
   1427.64465     372.1091     268.2675   1427.64465     372.1091     268.2675
   1427.62939     374.0630     269.5609   1427.62939     374.0630     269.5609
   1427.61414     374.5570     270.7592   1427.61414     374.5570     270.7592
   1427.59888     376.0400     272.1535   1427.59888     376.0400     272.1535
   1427.58362     377.6204     273.6783   1427.58362     377.6204     273.6783
   1427.56836     379.0234     275.1527   1427.56836     379.0234     275.1527
   1427.55310     380.5335     275.9571   1427.55310     380.5335     275.9571
   1427.53784     381.6774     277.6387   1427.53784     381.6774     277.6387
   1427.52258     383.5920     279.5270   1427.52258     383.5920     279.5270
   1427.50732     384.6190     280.9105   1427.50732     384.6190     280.9105
   1427.49207     387.2328     282.4456   1427.49207     387.2328     282.4456
   1427.47681     388.5788     284.1127   1427.47681     388.5788     284.1127
   1427.46155     389.8414     285.9438   1427.46155     389.8414     285.9438
   1427.44629     392.3934     287.6050   1427.44629     392.3934     287.6050
   1427.43103     394.1996     289.2152   1427.43103     394.1996     289.2152
   1427.41577     395.8929     290.8645   1427.41577     395.8929     290.8645
   1427.40051     397.5085     292.6830   1427.40051     397.5085     292.6830
   1427.38525     399.5751     294.0779   1427.38525     399.5751     294.0779
   1427.37000     401.6984     296.4025   1427.37000     401.6984     296.4025
   1427.35474     403.9279     298.0085   1427.35474     403.9279     298.0085
   1427.33948     406.3718     299.6895   1427.33948     406.3718     299.6895
   1427.32422     408.4390     301.6357   1427.32422     408.4390     301.6357
   1427.30896     410.6862     303.3454   1427.30896     410.6862     303.3454
   1427.29370     412.0759     305.3477   1427.29370     412.0759     305.3477
   1427.27844     416.0780     307.5913   1427.27844     416.0780     307.5913
   1427.26318     417.1761     309.2807   1427.26318     417.1761     309.2807
   1427.24792     420.1365     310.9440   1427.24792     420.1365     310.9440
   1427.23267     422.2234     312.9872   1427.23267     422.2234     312.9872
   1427.21741     425.6551     314.5168   1427.21741     425.6551     314.5168
   1427.20215     427.1633     316.9948   1427.20215     427.1633     316.9948
   1427.18689     429.4319     319.4318   1427.18689     429.4319     319.4318
   1427.17163     432.1640     321.4351   1427.17163     432.1640     321.4351
   1427.15637     435.3945     323.6138   1427.15637     435.3945     323.6138
   1427.14111     437.5163     325.4531   1427.14111     437.5163     325.4531
   1427.12585     440.4198     327.4796   1427.12585     440.4198     327.4796
   1427.11060     443.0168     329.4283   1427.11060     443.0168     329.4283
   1427.09534     445.6315     331.4852   1427.09534     445.6315     331.4852
   1427.08008     448.0984     333.4647   1427.08008     448.0984     333.4647
   1427.06482     451.5864     335.4776   1427.06482     451.5864     335.4776
   1427.04956     455.0442     338.0389   1427.04956     455.0442     338.0389
   1427.03430     456.7090     339.5999   1427.03430     456.7090     339.5999
   1427.01904     459.7677     341.8871   1427.01904     459.7677     341.8871
   1427.00378     462.6811     344.5472   1427.00378     462.6811     344.5472
   1426.98853     465.4453     345.9641   1426.98853     465.4453     345.9641
   1426.97327     469.0959     348.1899   1426.97327     469.0959     348.1899
   1426.95801     472.3459     350.4877   1426.95801     472.3459     350.4877
   1426.94275     475.0328     351.6635   1426.94275     475.0328     351.6635
   1426.92749     477.7552     354.9991   1426.92749     477.7552     354.9991
   1426.91223     481.5057     356.9326   1426.91223     481.5057     356.9326
   1426.89697     483.1603     358.8816   1426.89697     483.1603     358.8816
   1426.88171     486.9649     361.6986   1426.88171     486.9649     361.6986
   1426.86646     490.3146     363.6170   1426.86646     490.3146     363.6170
   1426.85120     492.8779     365.3748   1426.85120     492.8779     365.3748
   1426.83594     497.1547     367.4678   1426.83594     497.1547     367.4678
   1426.82068     499.4064     369.9053   1426.82068     499.4064     369.9053
   1426.80542     503.4075     371.7188   1426.80542     503.4075     371.7188
   1426.79016     505.8530     373.9698   1426.79016     505.8530     373.9698
   1426.77490     508.6735     376.0130   1426.77490     508.6735     376.0130
   1426.75964     512.5397     378.1559   1426.75964     512.5397     378.1559
   1426.74438     516.0063     380.4889   1426.74438     516.0063     380.4889
   1426.72913     518.9131     382.8752   1426.72913     518.9131     382.8752
   1426.71387     522.1032     384.6638   1426.71387     522.1032     384.6638
   1426.69861     525.9001     386.9799   1426.69861     525.9001     386.9799
   1426.68335     529.7248     389.2461   1426.68335     529.7248     389.2461
   1426.66809     531.7412     390.8708   1426.66809     531.7412     390.8708
   1426.65283     535.7095     392.9839   1426.65283     535.7095     392.9839
   1426.63757     537.6432     395.4852   1426.63757     537.6432     395.4852
   1426.62231     541.7566     402.3933   1426.62231     541.7566     402.3933
   1426.60706     545.2841     401.1738   1426.60706     545.2841     401.1738
   1426.59180     548.1886     401.0970   1426.59180     548.1886     401.0970
   1426.57654     551.6595     402.7045   1426.57654     551.6595     402.7045
   1426.56128     554.8090     405.6727   1426.56128     554.8090     405.6727
   1426.54602     557.8776     407.0930   1426.54602     557.8776     407.0930
   1426.53076     561.1140     409.2319   1426.53076     561.1140     409.2319
   1426.51550     564.3109     411.0170   1426.51550     564.3109     411.0170
   1426.50024     566.8260     412.7889   1426.50024     566.8260     412.7889
   1426.48499     571.0045     414.7408   1426.48499     571.0045     414.7408
   1426.46973     573.8484     417.0620   1426.46973     573.8484     417.0620
   1426.45447     577.1579     419.1471   1426.45447     577.1579     419.1471
   1426.43921     580.4009     420.7645   1426.43921     580.4009     420.7645
   1426.42395     584.3088     421.9016   1426.42395     584.3088     421.9016
   1426.40869     587.2119     423.7246   1426.40869     587.2119     423.7246
   1426.39343     589.8141     425.9650   1426.39343     589.8141     425.9650
   1426.37817     593.2987     428.1587   1426.37817     593.2987     428.1587
   1426.36292     596.5200     429.6467   1426.36292     596.5200     429.6467
   1426.34766     599.2806     431.1778   1426.34766     599.2806     431.1778
   1426.33240     602.8776     433.0264   1426.33240     602.8776     433.0264
   1426.31714     605.3696     434.9039   1426.31714     605.3696     434.9039
   1426.30188     609.6197     436.1950   1426.30188     609.6197     436.1950
   1426.28662     611.8427     437.6853   1426.28662     611.8427     437.6853
   1426.27136     615.9810     439.6474   1426.27136     615.9810     439.6474
   1426.25610     617.8851     441.3253   1426.25610     617.8851     441.3253
   1426.24084     621.8451     443.2961   1426.24084     621.8451     443.2961
   1426.22559     624.2349     444.8689   1426.22559     624.2349     444.8689
   1426.21033     626.6609     446.0615   1426.21033     626.6609     446.0615
   1426.19507     630.1261     447.4720   1426.19507     630.1261     447.4720
   1426.17981     632.2744     449.5260   1426.17981     632.2744     449.5260
   1426.16455     635.2534     450.9101   1426.16455     635.2534     450.9101
   1426.14929     637.6699     452.6500   1426.14929     637.6699     452.6500
   1426.13403     642.1115     454.9205   1426.13403     642.1115     454.9205
   1426.11877     644.7581     456.6344   1426.11877     644.7581     456.6344
   1426.10352     646.1005     457.4219   1426.10352     646.1005     457.4219
   1426.08826     649.4308     457.6632   1426.08826     649.4308     457.6632
   1426.07300     653.3783     459.3414   1426.07300     653.3783     459.3414
   1426.05774     655.6588     461.5512   1426.05774     655.6588     461.5512
   1426.04248     657.9972     463.1486   1426.04248     657.9972     463.1486
   1426.02722     660.0189     464.8300   1426.02722     660.0189     464.8300
   1426.01196     663.3293     465.8474   1426.01196     663.3293     465.8474
   1425.99670     666.0253     466.3176   1425.99670     666.0253     466.3176
   1425.98145     669.0278     468.4959   1425.98145     669.0278     468.4959
   1425.96619     670.9434     469.0996   1425.96619     670.9434     469.0996
   1425.95093     673.4863     470.6104   1425.95093     673.4863     470.6104
   1425.93567     675.1559     471.8913   1425.93567     675.1559     471.8913
   1425.92041     679.7680     472.5718   1425.92041     679.7680     472.5718
   1425.90515     681.4470     473.5165   1425.90515     681.4470     473.5165
   1425.88989     684.0137     475.0613   1425.88989     684.0137     475.0613
   1425.87463     684.6657     476.4548   1425.87463     684.6657     476.4548
   1425.85938     688.5892     476.8800   1425.85938     688.5892     476.8800
   1425.84412     690.4080     478.6686   1425.84412     690.4080     478.6686
   1425.82886     691.5269     479.4602   1425.82886     691.5269     479.4602
   1425.81360     694.0782     480.6767   1425.81360     694.0782     480.6767
   1425.79834     696.4950     481.6967   1425.79834     696.4950     481.6967
   1425.78308     698.6945     481.9884   1425.78308     698.6945     481.9884
   1425.76782     702.2800     483.4835   1425.76782     702.2800     483.4835
   1425.75256     702.4609     485.1050   1425.75256     702.4609     485.1050
   1425.73730     705.1181     485.6695   1425.73730     705.1181     485.6695
   1425.72205     706.9992     486.8256   1425.72205     706.9992     486.8256
   1425.70679     708.6027     487.7375   1425.70679     708.6027     487.7375
   1425.69153     711.0925     488.3046   1425.69153     711.0925     488.3046
   1425.67627     712.1386     489.5625   1425.67627     712.1386     489.5625
   1425.66101     714.9562     490.2293   1425.66101     714.9562     490.2293
   1425.64575     716.4809     490.7382   1425.64575     716.4809     490.7382
   1425.63049     717.9315     491.5627   1425.63049     717.9315     491.5627
   1425.61523     720.4189     492.7592   1425.61523     720.4189     492.7592
   1425.59998     722.0361     492.6721   1425.59998     722.0361     492.6721
   1425.58472     723.9135     493.9966   1425.58472     723.9135     493.9966
   1425.56946     725.6115     494.5807   1425.56946     725.6115     494.5807
   1425.55420     727.6151     496.6450   1425.55420     727.6151     496.6450
   1425.53894     728.2386     496.1801   1425.53894     728.2386     496.1801
   1425.52368     730.0629     497.1825   1425.52368     730.0629     497.1825
   1425.50842     732.1666     498.3995   1425.50842     732.1666     498.3995
   1425.49316     733.1823     497.9788   1425.49316     733.1823     497.9788
   1425.47791     733.8883     499.4755   1425.47791     733.8883     499.4755
   1425.46265     735.0988     500.3474   1425.46265     735.0988     500.3474
   1425.44739     737.0186     499.9125   1425.44739     737.0186     499.9125
   1425.43213     737.7806     500.5225   1425.43213     737.7806     500.5225
   1425.41687     739.1323     502.0151   1425.41687     739.1323     502.0151
   1425.40161     739.9396     502.2695   1425.40161     739.9396     502.2695
   1425.38635     742.1234     502.6613   1425.38635     742.1234     502.6613
   1425.37109     743.5447     503.8965   1425.37109     743.5447     503.8965
   1425.35583     744.6177     503.3611   1425.35583     744.6177     503.3611
   1425.34058     745.8163     504.5874   1425.34058     745.8163     504.5874
   1425.32532     746.7479     505.2094   1425.32532     746.7479     505.2094
   1425.31006     748.9459     505.9203   1425.31006     748.9459     505.9203
   1425.29480     748.2731     506.5873   1425.29480     748.2731     506.5873
   1425.27954     750.4822     506.6964   1425.27954     750.4822     506.6964
   1425.26428     749.9803     507.4651   1425.26428     749.9803     507.4651
   1425.24902     751.1165     507.7135   1425.24902     751.1165     507.7135
   1425.23376     751.1810     507.4558   1425.23376     751.1810     507.4558
   1425.21851     753.5281     507.7096   1425.21851     753.5281     507.7096
   1425.20325     752.0131     509.1779   1425.20325     752.0131     509.1779
   1425.18799     754.2034     509.2264   1425.18799     754.2034     509.2264
   1425.17273     754.2416     509.8036   1425.17273     754.2416     509.8036
   1425.15747     756.1890     510.2584   1425.15747     756.1890     510.2584
   1425.14221     755.7781     511.2932   1425.14221     755.7781     511.2932
   1425.12695     757.6081     510.7798   1425.12695     757.6081     510.7798
   1425.11169     756.9060     511.4359   1425.11169     756.9060     511.4359
   1425.09644     757.9948     511.8452   1425.09644     757.9948     511.8452
   1425.08118     758.2159     511.8509   1425.08118     758.2159     511.8509
   1425.06592     758.2012     512.5521   1425.06592     758.2012     512.5521
   1425.05066     760.6821     513.1282   1425.05066     760.6821     513.1282
   1425.03540     759.3421     512.4439   1425.03540     759.3421     512.4439
   1425.02014     759.9850     514.1001   1425.02014     759.9850     514.1001
   1425.00488     760.9122     513.7628   1425.00488     760.9122     513.7628
   1424.98962     761.4882     514.5014   1424.98962     761.4882     514.5014
   1424.97437     762.0555     514.6003   1424.97437     762.0555     514.6003
   1424.95911     761.6917     514.4671   1424.95911     761.6917     514.4671
   1424.94385     761.1588     514.5020   1424.94385     761.1588     514.5020
   1424.92859     761.2431     515.3649   1424.92859     761.2431     515.3649
   1424.91333     762.8484     514.7329   1424.91333     762.8484     514.7329
   1424.89807     762.8431     514.9583   1424.89807     762.8431     514.9583
   1424.88281     763.2987     515.7547   1424.88281     763.2987     515.7547
   1424.86755     761.8985     516.1816   1424.86755     761.8985     516.1816
   1424.85229     762.5361     516.3816   1424.85229     762.5361     516.3816
   1424.83704     763.3680     515.3969   1424.83704     763.3680     515.3969
   1424.82178     762.9808     516.4846   1424.82178     762.9808     516.4846
   1424.80652     763.0521     516.8326   1424.80652     763.0521     516.8326
   1424.79126     764.0176     516.7817   1424.79126     764.0176     516.7817
   1424.77600     762.7346     517.3715   1424.77600     762.7346     517.3715
   1424.76074     763.5545     517.1373   1424.76074     763.5545     517.1373
   1424.74548     762.5211     517.6941   1424.74548     762.5211     517.6941
   1424.73022     763.1763     517.4302   1424.73022     763.1763     517.4302
   1424.71497     762.6929     516.5669   1424.71497     762.6929     516.5669
   1424.69971     762.9581     517.5150   1424.69971     762.9581     517.5150
   1424.68445     760.9172     517.9198   1424.68445     760.9172     517.9198
   1424.66919     761.3976     517.3123   1424.66919     761.3976     517.3123
   1424.65393     761.5689     518.0879   1424.65393     761.5689     518.0879
   1424.63867     762.2363     518.1871   1424.63867     762.2363     518.1871
   1424.62341     760.4746     518.4922   1424.62341     760.4746     518.4922
   1424.60815     761.4434     518.5303   1424.60815     761.4434     518.5303
   1424.59290     760.0798     518.0223   1424.59290     760.0798     518.0223
   1424.57764     760.2876     518.9777   1424.57764     760.2876     518.9777
   1424.56238     761.1957     518.2073   1424.56238     761.1957     518.2073
   1424.54712     758.9707     517.9904   1424.54712     758.9707     517.9904
   1424.53186     760.1190     518.7208   1424.53186     760.1190     518.7208
   1424.51660     759.3460     518.4293   1424.51660     759.3460     518.4293
   1424.50134     759.9595     517.8478   1424.50134     759.9595     517.8478
   1424.48608     758.4668     518.5114   1424.48608     758.4668     518.5114
   1424.47083     757.1719     517.4909   1424.47083     757.1719     517.4909
   1424.45557     757.6700     517.8852   1424.45557     757.6700     517.8852
   1424.44031     755.9529     517.5785   1424.44031     755.9529     517.5785
   1424.42505     755.6828     518.0729   1424.42505     755.6828     518.0729
   1424.40979     755.4260     518.3577   1424.40979     755.4260     518.3577
   1424.39453     754.3730     518.3807   1424.39453     754.3730     518.3807
   1424.37927     754.7411     518.0394   1424.37927     754.7411     518.0394
   1424.36401     755.1949     517.9269   1424.36401     755.1949     517.9269
   1424.34875     753.8615     517.8126   1424.34875     753.8615     517.8126
   1424.33350     753.9597     517.0068   1424.33350     753.9597     517.0068
   1424.31824     753.0496     517.0629   1424.31824     753.0496     517.0629
   1424.30298     752.0908     517.5652   1424.30298     752.0908     517.5652
   1424.28772     750.4255     517.3493   1424.28772     750.4255     517.3493
   1424.27246     749.9830     517.3231   1424.27246     749.9830     517.3231
   1424.25720     750.4713     517.5396   1424.25720     750.4713     517.5396
   1424.24194     750.5193     517.7567   1424.24194     750.5193     517.7567
   1424.22668     748.6934     517.0549   1424.22668     748.6934     517.0549
   1424.21143     749.3217     516.2048   1424.21143     749.3217     516.2048
   1424.19617     748.1823     516.1840   1424.19617     748.1823     516.1840
   1424.18091     746.5276     515.9688   1424.18091     746.5276     515.9688
   1424.16565     746.8934     516.4704   1424.16565     746.8934     516.4704
