#     FILENAME=!Skynet_57528_lach-hhg-124_20414_20948.cyb.fits
#     BASENAME=Skynet_57528_lach-hhg-124_20414_20948
#     SRC_NAME=lach-hhg-124
#     OBSERVER=hhgmadison16_9500
#     DATE_OBS=2016-05-20T16:45:38.620
#        OBSID=20414
#      SCANNUM=20948
#          MJD=57528.6994
#          UTC=60427
#     SCANTYPE=track
#     DATAMODE=HIRES
#     TUNEFREQ=1420.0000
# Actual_FREQ1=1420.0000
# Actual_FREQ2=1420.0000
#    LO1Tuning=6870.000
#     RFFILTER=1355_1435
#        OBSBW=-15.6250
#        NCHAN=1024 
#        FOCUS=37.0709
#           RA=01:00:52.28
#          DEC=62:51:08.56
#      RA(hrs)=1.014500
#     DEC(deg)=62.852400
#    AZIM(deg)=330.274
#    ELEV(deg)=57.665
#     IFattens=10.00, 10.00
#      WARNING=None
#    TCAL_XL1=7.9635
#    TCAL_YR1=9.1340
#    TCAL_XL2=7.9635
#    TCAL_YR2=9.1340
#     TRX_XL1=11.7060
#     TRX_YR1=11.7060
#     TRX_XL2=11.7060
#     TRX_YR2=11.7060
#        TAVE=1.0000
#Freq1(MHz)          XL1          YR1  Freq2(MHz)          XL2          YR2 

   1427.81250     294.7708     280.5663   1427.81250     294.7708     280.5663
   1427.79724     295.4263     281.1466   1427.79724     295.4263     281.1466
   1427.78198     296.3529     281.3863   1427.78198     296.3529     281.3863
   1427.76672     296.6794     282.7707   1427.76672     296.6794     282.7707
   1427.75146     297.4620     283.7433   1427.75146     297.4620     283.7433
   1427.73621     297.7264     284.8166   1427.73621     297.7264     284.8166
   1427.72095     298.9549     285.8187   1427.72095     298.9549     285.8187
   1427.70569     299.3964     286.6852   1427.70569     299.3964     286.6852
   1427.69043     300.4078     287.9897   1427.69043     300.4078     287.9897
   1427.67517     301.4214     288.7817   1427.67517     301.4214     288.7817
   1427.65991     302.3765     289.8615   1427.65991     302.3765     289.8615
   1427.64465     302.8149     290.8181   1427.64465     302.8149     290.8181
   1427.62939     304.3353     292.7967   1427.62939     304.3353     292.7967
   1427.61414     305.3385     294.1064   1427.61414     305.3385     294.1064
   1427.59888     305.7040     294.9214   1427.59888     305.7040     294.9214
   1427.58362     307.2465     296.4997   1427.58362     307.2465     296.4997
   1427.56836     308.4811     297.9277   1427.56836     308.4811     297.9277
   1427.55310     309.5663     298.8943   1427.55310     309.5663     298.8943
   1427.53784     310.5288     300.4044   1427.53784     310.5288     300.4044
   1427.52258     312.5669     302.7054   1427.52258     312.5669     302.7054
   1427.50732     313.6379     304.2429   1427.50732     313.6379     304.2429
   1427.49207     314.9268     305.1753   1427.49207     314.9268     305.1753
   1427.47681     316.0664     306.8648   1427.47681     316.0664     306.8648
   1427.46155     317.9938     308.8517   1427.46155     317.9938     308.8517
   1427.44629     318.7611     310.4122   1427.44629     318.7611     310.4122
   1427.43103     320.2959     312.0867   1427.43103     320.2959     312.0867
   1427.41577     322.2152     313.8240   1427.41577     322.2152     313.8240
   1427.40051     324.1498     315.9333   1427.40051     324.1498     315.9333
   1427.38525     325.6872     317.3063   1427.38525     325.6872     317.3063
   1427.37000     326.4737     319.4512   1427.37000     326.4737     319.4512
   1427.35474     329.1762     320.9812   1427.35474     329.1762     320.9812
   1427.33948     330.4427     322.9102   1427.33948     330.4427     322.9102
   1427.32422     332.1191     324.6805   1427.32422     332.1191     324.6805
   1427.30896     333.7200     326.5739   1427.30896     333.7200     326.5739
   1427.29370     336.2646     329.4234   1427.29370     336.2646     329.4234
   1427.27844     337.2117     331.4490   1427.27844     337.2117     331.4490
   1427.26318     339.4463     333.0354   1427.26318     339.4463     333.0354
   1427.24792     341.2615     335.6743   1427.24792     341.2615     335.6743
   1427.23267     343.1100     336.5081   1427.23267     343.1100     336.5081
   1427.21741     344.9417     338.6466   1427.21741     344.9417     338.6466
   1427.20215     347.4154     341.6124   1427.20215     347.4154     341.6124
   1427.18689     349.3305     343.1573   1427.18689     349.3305     343.1573
   1427.17163     351.0422     345.8251   1427.17163     351.0422     345.8251
   1427.15637     352.4591     347.6577   1427.15637     352.4591     347.6577
   1427.14111     355.8231     350.0621   1427.14111     355.8231     350.0621
   1427.12585     357.4327     352.1847   1427.12585     357.4327     352.1847
   1427.11060     359.2794     354.3729   1427.11060     359.2794     354.3729
   1427.09534     361.8245     356.4702   1427.09534     361.8245     356.4702
   1427.08008     363.7564     359.4628   1427.08008     363.7564     359.4628
   1427.06482     366.0512     361.7851   1427.06482     366.0512     361.7851
   1427.04956     367.9285     363.1676   1427.04956     367.9285     363.1676
   1427.03430     370.4777     366.3295   1427.03430     370.4777     366.3295
   1427.01904     371.8659     368.4439   1427.01904     371.8659     368.4439
   1427.00378     375.0463     371.6259   1427.00378     375.0463     371.6259
   1426.98853     376.8794     373.2710   1426.98853     376.8794     373.2710
   1426.97327     379.3965     375.7082   1426.97327     379.3965     375.7082
   1426.95801     382.0867     378.6184   1426.95801     382.0867     378.6184
   1426.94275     384.0233     380.1491   1426.94275     384.0233     380.1491
   1426.92749     386.4408     383.4610   1426.92749     386.4408     383.4610
   1426.91223     389.2463     386.1083   1426.91223     389.2463     386.1083
   1426.89697     391.2990     387.4850   1426.89697     391.2990     387.4850
   1426.88171     393.4662     390.8556   1426.88171     393.4662     390.8556
   1426.86646     396.0421     392.6099   1426.86646     396.0421     392.6099
   1426.85120     398.3286     395.7042   1426.85120     398.3286     395.7042
   1426.83594     401.3690     398.2241   1426.83594     401.3690     398.2241
   1426.82068     402.6519     400.8230   1426.82068     402.6519     400.8230
   1426.80542     405.1672     403.1127   1426.80542     405.1672     403.1127
   1426.79016     407.7422     405.5613   1426.79016     407.7422     405.5613
   1426.77490     410.0458     408.2565   1426.77490     410.0458     408.2565
   1426.75964     413.1308     410.8047   1426.75964     413.1308     410.8047
   1426.74438     415.3572     413.8258   1426.74438     415.3572     413.8258
   1426.72913     418.0669     415.4494   1426.72913     418.0669     415.4494
   1426.71387     421.0631     418.2621   1426.71387     421.0631     418.2621
   1426.69861     423.0034     421.0284   1426.69861     423.0034     421.0284
   1426.68335     425.2315     423.3346   1426.68335     425.2315     423.3346
   1426.66809     427.6985     426.1254   1426.66809     427.6985     426.1254
   1426.65283     430.1185     427.8293   1426.65283     430.1185     427.8293
   1426.63757     432.8458     430.9692   1426.63757     432.8458     430.9692
   1426.62231     436.2187     434.8071   1426.62231     436.2187     434.8071
   1426.60706     437.7895     437.2143   1426.60706     437.7895     437.2143
   1426.59180     440.0737     438.6404   1426.59180     440.0737     438.6404
   1426.57654     443.1889     441.3469   1426.57654     443.1889     441.3469
   1426.56128     445.0636     443.6761   1426.56128     445.0636     443.6761
   1426.54602     447.2563     446.1807   1426.54602     447.2563     446.1807
   1426.53076     449.9291     448.2116   1426.53076     449.9291     448.2116
   1426.51550     452.3169     450.9461   1426.51550     452.3169     450.9461
   1426.50024     454.3565     453.7386   1426.50024     454.3565     453.7386
   1426.48499     457.5063     456.0915   1426.48499     457.5063     456.0915
   1426.46973     459.3239     458.9959   1426.46973     459.3239     458.9959
   1426.45447     462.1800     460.9403   1426.45447     462.1800     460.9403
   1426.43921     463.5142     463.6180   1426.43921     463.5142     463.6180
   1426.42395     467.2680     466.5049   1426.42395     467.2680     466.5049
   1426.40869     468.6619     468.5541   1426.40869     468.6619     468.5541
   1426.39343     471.4012     470.1346   1426.39343     471.4012     470.1346
   1426.37817     473.1999     472.8300   1426.37817     473.1999     472.8300
   1426.36292     475.7239     475.7811   1426.36292     475.7239     475.7811
   1426.34766     478.7346     478.3802   1426.34766     478.7346     478.3802
   1426.33240     480.8642     480.7424   1426.33240     480.8642     480.7424
   1426.31714     483.5822     483.0480   1426.31714     483.5822     483.0480
   1426.30188     485.2157     485.0977   1426.30188     485.2157     485.0977
   1426.28662     487.4782     487.7776   1426.28662     487.4782     487.7776
   1426.27136     489.6708     490.0176   1426.27136     489.6708     490.0176
   1426.25610     492.7625     492.0744   1426.25610     492.7625     492.0744
   1426.24084     494.4950     494.5626   1426.24084     494.4950     494.5626
   1426.22559     496.5995     497.0006   1426.22559     496.5995     497.0006
   1426.21033     499.1660     499.0286   1426.21033     499.1660     499.0286
   1426.19507     500.6799     500.2039   1426.19507     500.6799     500.2039
   1426.17981     502.6485     503.5359   1426.17981     502.6485     503.5359
   1426.16455     505.8794     505.3515   1426.16455     505.8794     505.3515
   1426.14929     506.9994     507.9256   1426.14929     506.9994     507.9256
   1426.13403     509.1441     509.8130   1426.13403     509.1441     509.8130
   1426.11877     511.7595     513.0140   1426.11877     511.7595     513.0140
   1426.10352     513.7495     513.0882   1426.10352     513.7495     513.0882
   1426.08826     516.0475     515.8582   1426.08826     516.0475     515.8582
   1426.07300     518.4247     518.5100   1426.07300     518.4247     518.5100
   1426.05774     519.1964     520.1649   1426.05774     519.1964     520.1649
   1426.04248     521.3744     522.2146   1426.04248     521.3744     522.2146
   1426.02722     523.4310     524.3732   1426.02722     523.4310     524.3732
   1426.01196     525.1913     527.0232   1426.01196     525.1913     527.0232
   1425.99670     526.8240     529.2009   1425.99670     526.8240     529.2009
   1425.98145     530.2905     529.6990   1425.98145     530.2905     529.6990
   1425.96619     531.4547     532.5917   1425.96619     531.4547     532.5917
   1425.95093     532.5872     534.3608   1425.95093     532.5872     534.3608
   1425.93567     534.6184     535.9640   1425.93567     534.6184     535.9640
   1425.92041     536.3615     537.9128   1425.92041     536.3615     537.9128
   1425.90515     538.9157     540.4788   1425.90515     538.9157     540.4788
   1425.88989     539.9615     541.8485   1425.88989     539.9615     541.8485
   1425.87463     541.7140     544.6269   1425.87463     541.7140     544.6269
   1425.85938     543.3981     545.8990   1425.85938     543.3981     545.8990
   1425.84412     544.7167     547.1923   1425.84412     544.7167     547.1923
   1425.82886     547.0468     548.4551   1425.82886     547.0468     548.4551
   1425.81360     548.8356     551.3223   1425.81360     548.8356     551.3223
   1425.79834     550.8837     552.8593   1425.79834     550.8837     552.8593
   1425.78308     551.4240     554.4543   1425.78308     551.4240     554.4543
   1425.76782     553.5137     556.8653   1425.76782     553.5137     556.8653
   1425.75256     554.9116     557.5071   1425.75256     554.9116     557.5071
   1425.73730     557.0172     558.8516   1425.73730     557.0172     558.8516
   1425.72205     557.5806     559.9567   1425.72205     557.5806     559.9567
   1425.70679     559.1476     562.3964   1425.70679     559.1476     562.3964
   1425.69153     560.6724     564.0492   1425.69153     560.6724     564.0492
   1425.67627     562.0752     566.1879   1425.67627     562.0752     566.1879
   1425.66101     561.6774     567.2711   1425.66101     561.6774     567.2711
   1425.64575     564.7944     568.3721   1425.64575     564.7944     568.3721
   1425.63049     566.2244     570.8181   1425.63049     566.2244     570.8181
   1425.61523     567.0501     572.0907   1425.61523     567.0501     572.0907
   1425.59998     568.0385     574.1540   1425.59998     568.0385     574.1540
   1425.58472     569.4398     574.5952   1425.58472     569.4398     574.5952
   1425.56946     570.5107     577.3506   1425.56946     570.5107     577.3506
   1425.55420     572.1481     578.7523   1425.55420     572.1481     578.7523
   1425.53894     573.8090     579.5178   1425.53894     573.8090     579.5178
   1425.52368     575.2758     581.6311   1425.52368     575.2758     581.6311
   1425.50842     575.3356     583.4720   1425.50842     575.3356     583.4720
   1425.49316     576.3135     584.4538   1425.49316     576.3135     584.4538
   1425.47791     577.1891     584.5085   1425.47791     577.1891     584.5085
   1425.46265     578.3575     586.2236   1425.46265     578.3575     586.2236
   1425.44739     580.2559     588.3853   1425.44739     580.2559     588.3853
   1425.43213     580.7780     589.3085   1425.43213     580.7780     589.3085
   1425.41687     581.5258     591.3011   1425.41687     581.5258     591.3011
   1425.40161     582.7640     591.1420   1425.40161     582.7640     591.1420
   1425.38635     582.6852     592.8736   1425.38635     582.6852     592.8736
   1425.37109     584.1797     594.7601   1425.37109     584.1797     594.7601
   1425.35583     584.6694     595.3571   1425.35583     584.6694     595.3571
   1425.34058     587.3685     596.2689   1425.34058     587.3685     596.2689
   1425.32532     588.0603     597.1826   1425.32532     588.0603     597.1826
   1425.31006     587.5840     598.8171   1425.31006     587.5840     598.8171
   1425.29480     589.1622     598.6045   1425.29480     589.1622     598.6045
   1425.27954     589.1700     600.3494   1425.27954     589.1700     600.3494
   1425.26428     590.2241     602.2636   1425.26428     590.2241     602.2636
   1425.24902     590.8727     602.5672   1425.24902     590.8727     602.5672
   1425.23376     590.8350     604.7524   1425.23376     590.8350     604.7524
   1425.21851     592.0016     604.3165   1425.21851     592.0016     604.3165
   1425.20325     592.5427     606.2870   1425.20325     592.5427     606.2870
   1425.18799     592.7429     606.6761   1425.18799     592.7429     606.6761
   1425.17273     593.2726     607.0467   1425.17273     593.2726     607.0467
   1425.15747     594.2465     608.7460   1425.15747     594.2465     608.7460
   1425.14221     593.9125     609.7417   1425.14221     593.9125     609.7417
   1425.12695     595.2067     611.6735   1425.12695     595.2067     611.6735
   1425.11169     596.0317     612.0603   1425.11169     596.0317     612.0603
   1425.09644     596.4021     612.6326   1425.09644     596.4021     612.6326
   1425.08118     596.8685     613.1682   1425.08118     596.8685     613.1682
   1425.06592     597.2670     614.4409   1425.06592     597.2670     614.4409
   1425.05066     598.4800     615.6830   1425.05066     598.4800     615.6830
   1425.03540     598.8049     615.9413   1425.03540     598.8049     615.9413
   1425.02014     598.2844     616.8602   1425.02014     598.2844     616.8602
   1425.00488     599.2959     617.6097   1425.00488     599.2959     617.6097
   1424.98962     599.6892     618.7428   1424.98962     599.6892     618.7428
   1424.97437     599.3282     619.6353   1424.97437     599.3282     619.6353
   1424.95911     600.5649     620.6023   1424.95911     600.5649     620.6023
   1424.94385     599.6313     621.5163   1424.94385     599.6313     621.5163
   1424.92859     601.0486     621.6306   1424.92859     601.0486     621.6306
   1424.91333     601.1643     621.2616   1424.91333     601.1643     621.2616
   1424.89807     600.8933     622.2319   1424.89807     600.8933     622.2319
   1424.88281     601.4336     623.4937   1424.88281     601.4336     623.4937
   1424.86755     601.3305     624.2938   1424.86755     601.3305     624.2938
   1424.85229     601.8091     624.1225   1424.85229     601.8091     624.1225
   1424.83704     601.8739     625.0070   1424.83704     601.8739     625.0070
   1424.82178     601.7026     625.5964   1424.82178     601.7026     625.5964
   1424.80652     602.5507     626.3051   1424.80652     602.5507     626.3051
   1424.79126     602.4935     627.1088   1424.79126     602.4935     627.1088
   1424.77600     602.7311     626.8792   1424.77600     602.7311     626.8792
   1424.76074     602.1990     627.7419   1424.76074     602.1990     627.7419
   1424.74548     601.6708     629.0062   1424.74548     601.6708     629.0062
   1424.73022     602.5341     629.7706   1424.73022     602.5341     629.7706
   1424.71497     603.4003     629.6909   1424.71497     603.4003     629.6909
   1424.69971     602.1514     629.4064   1424.69971     602.1514     629.4064
   1424.68445     602.4249     630.0555   1424.68445     602.4249     630.0555
   1424.66919     602.6503     631.2280   1424.66919     602.6503     631.2280
   1424.65393     602.0668     631.2698   1424.65393     602.0668     631.2698
   1424.63867     601.5175     632.1774   1424.63867     601.5175     632.1774
   1424.62341     602.7407     632.4107   1424.62341     602.7407     632.4107
   1424.60815     601.4225     632.4113   1424.60815     601.4225     632.4113
   1424.59290     602.6433     632.5460   1424.59290     602.6433     632.5460
   1424.57764     601.8776     632.1907   1424.57764     601.8776     632.1907
   1424.56238     601.4224     633.5143   1424.56238     601.4224     633.5143
   1424.54712     601.5812     633.3583   1424.54712     601.5812     633.3583
   1424.53186     601.9630     635.1090   1424.53186     601.9630     635.1090
   1424.51660     601.7479     634.8792   1424.51660     601.7479     634.8792
   1424.50134     602.1478     634.3041   1424.50134     602.1478     634.3041
   1424.48608     601.7881     634.4761   1424.48608     601.7881     634.4761
   1424.47083     601.0037     634.5546   1424.47083     601.0037     634.5546
   1424.45557     601.1331     634.8365   1424.45557     601.1331     634.8365
   1424.44031     600.5892     635.0566   1424.44031     600.5892     635.0566
   1424.42505     600.6064     636.3348   1424.42505     600.6064     636.3348
   1424.40979     600.5873     635.8167   1424.40979     600.5873     635.8167
   1424.39453     601.0907     636.6531   1424.39453     601.0907     636.6531
   1424.37927     600.8688     636.7047   1424.37927     600.8688     636.7047
   1424.36401     600.2711     636.5486   1424.36401     600.2711     636.5486
   1424.34875     600.2645     637.2100   1424.34875     600.2645     637.2100
   1424.33350     599.9404     637.8943   1424.33350     599.9404     637.8943
   1424.31824     599.7314     637.8459   1424.31824     599.7314     637.8459
   1424.30298     599.5616     637.3987   1424.30298     599.5616     637.3987
   1424.28772     600.0798     638.0443   1424.28772     600.0798     638.0443
   1424.27246     598.3129     636.7122   1424.27246     598.3129     636.7122
   1424.25720     599.4042     639.0502   1424.25720     599.4042     639.0502
   1424.24194     598.7404     637.1049   1424.24194     598.7404     637.1049
   1424.22668     598.8660     638.9720   1424.22668     598.8660     638.9720
   1424.21143     598.0579     636.9110   1424.21143     598.0579     636.9110
   1424.19617     598.5506     638.0786   1424.19617     598.5506     638.0786
   1424.18091     596.8777     637.5101   1424.18091     596.8777     637.5101
   1424.16565     597.5037     638.3873   1424.16565     597.5037     638.3873
