#     FILENAME=!Skynet_57528_lach-cc-74_20506_20920.cyb.fits
#     BASENAME=Skynet_57528_lach-cc-74_20506_20920
#     SRC_NAME=lach-cc-74
#     OBSERVER=ccmadison16_9505
#     DATE_OBS=2016-05-20T15:49:41.750
#        OBSID=20506
#      SCANNUM=20920
#          MJD=57528.6606
#          UTC=57071
#     SCANTYPE=track
#     DATAMODE=HIRES
#     TUNEFREQ=1420.0000
# Actual_FREQ1=1420.0000
# Actual_FREQ2=1420.0000
#    LO1Tuning=6870.000
#     RFFILTER=1355_1435
#        OBSBW=-15.6250
#        NCHAN=1024 
#        FOCUS=37.0709
#           RA=20:18:08.17
#          DEC=35:46:49.12
#      RA(hrs)=20.302300
#     DEC(deg)=35.780300
#    AZIM(deg)=299.743
#    ELEV(deg)=20.112
#     IFattens=11.00, 10.00
#      WARNING=None
#    TCAL_XL1=7.9635
#    TCAL_YR1=9.1340
#    TCAL_XL2=7.9635
#    TCAL_YR2=9.1340
#     TRX_XL1=11.7060
#     TRX_YR1=11.7060
#     TRX_XL2=11.7060
#     TRX_YR2=11.7060
#        TAVE=1.0000
#Freq1(MHz)          XL1          YR1  Freq2(MHz)          XL2          YR2 

   1427.81250     328.9926     276.2067   1427.81250     328.9926     276.2067
   1427.79724     330.4132     276.9151   1427.79724     330.4132     276.9151
   1427.78198     330.2677     277.4982   1427.78198     330.2677     277.4982
   1427.76672     331.1219     278.8773   1427.76672     331.1219     278.8773
   1427.75146     331.8790     279.2960   1427.75146     331.8790     279.2960
   1427.73621     332.7974     280.2613   1427.73621     332.7974     280.2613
   1427.72095     333.4210     280.6830   1427.72095     333.4210     280.6830
   1427.70569     334.8269     281.4585   1427.70569     334.8269     281.4585
   1427.69043     335.4415     282.4693   1427.69043     335.4415     282.4693
   1427.67517     336.0618     283.4450   1427.67517     336.0618     283.4450
   1427.65991     337.1695     284.1653   1427.65991     337.1695     284.1653
   1427.64465     337.5460     285.0331   1427.64465     337.5460     285.0331
   1427.62939     338.7440     286.1006   1427.62939     338.7440     286.1006
   1427.61414     339.9001     287.3159   1427.61414     339.9001     287.3159
   1427.59888     341.5953     288.4055   1427.59888     341.5953     288.4055
   1427.58362     342.2438     289.4717   1427.58362     342.2438     289.4717
   1427.56836     343.4817     290.5310   1427.56836     343.4817     290.5310
   1427.55310     345.7711     291.8372   1427.55310     345.7711     291.8372
   1427.53784     346.5899     293.2650   1427.53784     346.5899     293.2650
   1427.52258     348.2096     294.9428   1427.52258     348.2096     294.9428
   1427.50732     349.5931     296.2186   1427.50732     349.5931     296.2186
   1427.49207     350.8167     296.8848   1427.49207     350.8167     296.8848
   1427.47681     352.2421     298.7680   1427.47681     352.2421     298.7680
   1427.46155     353.8965     299.9431   1427.46155     353.8965     299.9431
   1427.44629     355.2236     301.2599   1427.44629     355.2236     301.2599
   1427.43103     356.9450     303.9240   1427.43103     356.9450     303.9240
   1427.41577     358.3724     304.9706   1427.41577     358.3724     304.9706
   1427.40051     360.6453     305.9875   1427.40051     360.6453     305.9875
   1427.38525     362.3326     307.6351   1427.38525     362.3326     307.6351
   1427.37000     363.8653     309.7458   1427.37000     363.8653     309.7458
   1427.35474     365.2936     311.7357   1427.35474     365.2936     311.7357
   1427.33948     367.5050     313.0836   1427.33948     367.5050     313.0836
   1427.32422     369.9443     315.1106   1427.32422     369.9443     315.1106
   1427.30896     370.8693     316.7215   1427.30896     370.8693     316.7215
   1427.29370     373.5490     318.3336   1427.29370     373.5490     318.3336
   1427.27844     375.0349     320.2882   1427.27844     375.0349     320.2882
   1427.26318     377.4272     321.7864   1427.26318     377.4272     321.7864
   1427.24792     379.1751     324.0483   1427.24792     379.1751     324.0483
   1427.23267     381.1121     325.6002   1427.23267     381.1121     325.6002
   1427.21741     383.8316     327.9250   1427.21741     383.8316     327.9250
   1427.20215     385.0693     329.6506   1427.20215     385.0693     329.6506
   1427.18689     388.0290     331.5565   1427.18689     388.0290     331.5565
   1427.17163     389.8915     333.4953   1427.17163     389.8915     333.4953
   1427.15637     393.1741     335.7677   1427.15637     393.1741     335.7677
   1427.14111     394.6070     337.8729   1427.14111     394.6070     337.8729
   1427.12585     396.5033     340.1071   1427.12585     396.5033     340.1071
   1427.11060     399.3014     341.7061   1427.11060     399.3014     341.7061
   1427.09534     401.6967     343.4939   1427.09534     401.6967     343.4939
   1427.08008     404.8943     346.6595   1427.08008     404.8943     346.6595
   1427.06482     406.7886     347.4632   1427.06482     406.7886     347.4632
   1427.04956     409.4557     350.1909   1427.04956     409.4557     350.1909
   1427.03430     411.2355     352.3495   1427.03430     411.2355     352.3495
   1427.01904     414.0987     354.9360   1427.01904     414.0987     354.9360
   1427.00378     415.8253     356.8429   1427.00378     415.8253     356.8429
   1426.98853     418.6165     359.0772   1426.98853     418.6165     359.0772
   1426.97327     420.6310     361.5057   1426.97327     420.6310     361.5057
   1426.95801     423.8289     363.5392   1426.95801     423.8289     363.5392
   1426.94275     426.1405     366.0899   1426.94275     426.1405     366.0899
   1426.92749     428.5393     368.1683   1426.92749     428.5393     368.1683
   1426.91223     431.5030     370.1123   1426.91223     431.5030     370.1123
   1426.89697     433.3922     371.9681   1426.89697     433.3922     371.9681
   1426.88171     436.2918     375.2445   1426.88171     436.2918     375.2445
   1426.86646     438.7409     376.8474   1426.86646     438.7409     376.8474
   1426.85120     441.6358     380.0273   1426.85120     441.6358     380.0273
   1426.83594     443.6213     381.0928   1426.83594     443.6213     381.0928
   1426.82068     446.5720     383.9173   1426.82068     446.5720     383.9173
   1426.80542     449.9247     385.8722   1426.80542     449.9247     385.8722
   1426.79016     453.0262     388.6580   1426.79016     453.0262     388.6580
   1426.77490     455.1696     390.1766   1426.77490     455.1696     390.1766
   1426.75964     457.4343     393.0175   1426.75964     457.4343     393.0175
   1426.74438     460.2729     395.2474   1426.74438     460.2729     395.2474
   1426.72913     462.1348     397.3139   1426.72913     462.1348     397.3139
   1426.71387     464.8518     399.7389   1426.71387     464.8518     399.7389
   1426.69861     468.4495     402.2680   1426.69861     468.4495     402.2680
   1426.68335     470.1414     404.4460   1426.68335     470.1414     404.4460
   1426.66809     473.0357     406.7013   1426.66809     473.0357     406.7013
   1426.65283     476.6269     408.9628   1426.65283     476.6269     408.9628
   1426.63757     479.7379     411.2057   1426.63757     479.7379     411.2057
   1426.62231     483.5971     413.9218   1426.62231     483.5971     413.9218
   1426.60706     483.8203     415.9951   1426.60706     483.8203     415.9951
   1426.59180     486.5787     417.7366   1426.59180     486.5787     417.7366
   1426.57654     489.3404     420.9223   1426.57654     489.3404     420.9223
   1426.56128     492.6976     422.5306   1426.56128     492.6976     422.5306
   1426.54602     495.3335     424.9741   1426.54602     495.3335     424.9741
   1426.53076     497.9333     426.9710   1426.53076     497.9333     426.9710
   1426.51550     499.8946     428.9518   1426.51550     499.8946     428.9518
   1426.50024     502.2176     431.2666   1426.50024     502.2176     431.2666
   1426.48499     505.0449     433.0141   1426.48499     505.0449     433.0141
   1426.46973     507.4586     435.3303   1426.46973     507.4586     435.3303
   1426.45447     511.0933     436.9603   1426.45447     511.0933     436.9603
   1426.43921     513.0726     439.6541   1426.43921     513.0726     439.6541
   1426.42395     515.3199     441.5162   1426.42395     515.3199     441.5162
   1426.40869     518.9709     444.7848   1426.40869     518.9709     444.7848
   1426.39343     520.7855     446.0121   1426.39343     520.7855     446.0121
   1426.37817     523.7200     448.6592   1426.37817     523.7200     448.6592
   1426.36292     525.5229     449.8679   1426.36292     525.5229     449.8679
   1426.34766     527.5642     451.6869   1426.34766     527.5642     451.6869
   1426.33240     530.6694     454.0228   1426.33240     530.6694     454.0228
   1426.31714     533.1252     457.1451   1426.31714     533.1252     457.1451
   1426.30188     536.4183     457.9226   1426.30188     536.4183     457.9226
   1426.28662     538.2111     460.0641   1426.28662     538.2111     460.0641
   1426.27136     540.5416     461.7558   1426.27136     540.5416     461.7558
   1426.25610     542.9431     464.5326   1426.25610     542.9431     464.5326
   1426.24084     545.3589     465.9828   1426.24084     545.3589     465.9828
   1426.22559     547.5412     467.1988   1426.22559     547.5412     467.1988
   1426.21033     550.6248     470.0120   1426.21033     550.6248     470.0120
   1426.19507     552.5568     472.5095   1426.19507     552.5568     472.5095
   1426.17981     553.9545     473.1352   1426.17981     553.9545     473.1352
   1426.16455     557.7430     475.6080   1426.16455     557.7430     475.6080
   1426.14929     559.7446     477.5969   1426.14929     559.7446     477.5969
   1426.13403     562.5597     479.0811   1426.13403     562.5597     479.0811
   1426.11877     564.0594     480.9506   1426.11877     564.0594     480.9506
   1426.10352     567.2109     482.5587   1426.10352     567.2109     482.5587
   1426.08826     568.2228     484.3715   1426.08826     568.2228     484.3715
   1426.07300     571.3844     485.7854   1426.07300     571.3844     485.7854
   1426.05774     572.3492     487.5183   1426.05774     572.3492     487.5183
   1426.04248     574.4429     489.2750   1426.04248     574.4429     489.2750
   1426.02722     576.8901     490.3743   1426.02722     576.8901     490.3743
   1426.01196     578.9096     492.6095   1426.01196     578.9096     492.6095
   1425.99670     581.0303     494.5656   1425.99670     581.0303     494.5656
   1425.98145     583.5016     496.1259   1425.98145     583.5016     496.1259
   1425.96619     585.7308     496.8989   1425.96619     585.7308     496.8989
   1425.95093     587.0166     499.6582   1425.95093     587.0166     499.6582
   1425.93567     588.9961     501.3644   1425.93567     588.9961     501.3644
   1425.92041     590.7015     502.1357   1425.92041     590.7015     502.1357
   1425.90515     593.2764     504.1531   1425.90515     593.2764     504.1531
   1425.88989     595.1671     505.8525   1425.88989     595.1671     505.8525
   1425.87463     596.1660     506.4104   1425.87463     596.1660     506.4104
   1425.85938     599.0035     508.4766   1425.85938     599.0035     508.4766
   1425.84412     599.7612     509.0070   1425.84412     599.7612     509.0070
   1425.82886     602.4514     511.2501   1425.82886     602.4514     511.2501
   1425.81360     603.1961     513.1547   1425.81360     603.1961     513.1547
   1425.79834     605.0837     513.3658   1425.79834     605.0837     513.3658
   1425.78308     607.2722     514.4879   1425.78308     607.2722     514.4879
   1425.76782     608.0304     516.9913   1425.76782     608.0304     516.9913
   1425.75256     610.1990     517.5296   1425.75256     610.1990     517.5296
   1425.73730     612.3423     518.9207   1425.73730     612.3423     518.9207
   1425.72205     613.0381     520.9072   1425.72205     613.0381     520.9072
   1425.70679     615.0118     522.3508   1425.70679     615.0118     522.3508
   1425.69153     616.3922     523.7283   1425.69153     616.3922     523.7283
   1425.67627     618.5124     525.1770   1425.67627     618.5124     525.1770
   1425.66101     619.4703     525.5441   1425.66101     619.4703     525.5441
   1425.64575     620.7796     527.1121   1425.64575     620.7796     527.1121
   1425.63049     621.6898     528.2805   1425.63049     621.6898     528.2805
   1425.61523     623.7890     529.6129   1425.61523     623.7890     529.6129
   1425.59998     625.0184     530.8690   1425.59998     625.0184     530.8690
   1425.58472     625.9958     532.4274   1425.58472     625.9958     532.4274
   1425.56946     627.7128     532.7363   1425.56946     627.7128     532.7363
   1425.55420     628.7389     534.0324   1425.55420     628.7389     534.0324
   1425.53894     630.6566     535.7184   1425.53894     630.6566     535.7184
   1425.52368     631.9106     536.6921   1425.52368     631.9106     536.6921
   1425.50842     633.1910     537.7359   1425.50842     633.1910     537.7359
   1425.49316     633.2138     539.0592   1425.49316     633.2138     539.0592
   1425.47791     635.6019     540.3593   1425.47791     635.6019     540.3593
   1425.46265     635.6832     540.6542   1425.46265     635.6832     540.6542
   1425.44739     637.7316     542.0728   1425.44739     637.7316     542.0728
   1425.43213     637.8124     543.2532   1425.43213     637.8124     543.2532
   1425.41687     639.2320     544.9657   1425.41687     639.2320     544.9657
   1425.40161     640.7700     545.1693   1425.40161     640.7700     545.1693
   1425.38635     641.8256     545.1817   1425.38635     641.8256     545.1817
   1425.37109     642.4294     547.3794   1425.37109     642.4294     547.3794
   1425.35583     642.9628     548.2078   1425.35583     642.9628     548.2078
   1425.34058     644.4987     548.8918   1425.34058     644.4987     548.8918
   1425.32532     644.4863     549.6406   1425.32532     644.4863     549.6406
   1425.31006     646.0621     551.4138   1425.31006     646.0621     551.4138
   1425.29480     646.5237     551.0989   1425.29480     646.5237     551.0989
   1425.27954     647.9754     553.7130   1425.27954     647.9754     553.7130
   1425.26428     648.4995     554.3132   1425.26428     648.4995     554.3132
   1425.24902     649.1683     554.6498   1425.24902     649.1683     554.6498
   1425.23376     648.9034     556.2153   1425.23376     648.9034     556.2153
   1425.21851     650.5141     557.6642   1425.21851     650.5141     557.6642
   1425.20325     652.7147     557.8057   1425.20325     652.7147     557.8057
   1425.18799     651.9733     558.7694   1425.18799     651.9733     558.7694
   1425.17273     652.9568     560.3950   1425.17273     652.9568     560.3950
   1425.15747     652.4612     561.4823   1425.15747     652.4612     561.4823
   1425.14221     653.9237     561.5569   1425.14221     653.9237     561.5569
   1425.12695     654.9127     561.6137   1425.12695     654.9127     561.6137
   1425.11169     654.9252     562.4062   1425.11169     654.9252     562.4062
   1425.09644     656.2241     564.1198   1425.09644     656.2241     564.1198
   1425.08118     656.3291     564.8861   1425.08118     656.3291     564.8861
   1425.06592     656.9125     565.7442   1425.06592     656.9125     565.7442
   1425.05066     656.9449     566.4127   1425.05066     656.9449     566.4127
   1425.03540     658.4299     568.2720   1425.03540     658.4299     568.2720
   1425.02014     657.9683     567.9645   1425.02014     657.9683     567.9645
   1425.00488     658.7663     568.1926   1425.00488     658.7663     568.1926
   1424.98962     658.8377     569.6347   1424.98962     658.8377     569.6347
   1424.97437     660.5067     570.7488   1424.97437     660.5067     570.7488
   1424.95911     660.7754     570.5784   1424.95911     660.7754     570.5784
   1424.94385     659.9315     572.5331   1424.94385     659.9315     572.5331
   1424.92859     660.2723     573.0848   1424.92859     660.2723     573.0848
   1424.91333     660.8625     574.1135   1424.91333     660.8625     574.1135
   1424.89807     660.8052     574.7567   1424.89807     660.8052     574.7567
   1424.88281     661.2702     575.2343   1424.88281     661.2702     575.2343
   1424.86755     661.5176     576.3472   1424.86755     661.5176     576.3472
   1424.85229     663.1946     576.5695   1424.85229     663.1946     576.5695
   1424.83704     662.3715     576.6495   1424.83704     662.3715     576.6495
   1424.82178     662.6543     577.7008   1424.82178     662.6543     577.7008
   1424.80652     662.4016     577.7863   1424.80652     662.4016     577.7863
   1424.79126     663.6329     579.0520   1424.79126     663.6329     579.0520
   1424.77600     663.1997     579.4739   1424.77600     663.1997     579.4739
   1424.76074     662.6944     580.9056   1424.76074     662.6944     580.9056
   1424.74548     663.3054     580.6964   1424.74548     663.3054     580.6964
   1424.73022     663.1616     581.5059   1424.73022     663.1616     581.5059
   1424.71497     663.7881     583.0646   1424.71497     663.7881     583.0646
   1424.69971     663.6921     583.5836   1424.69971     663.6921     583.5836
   1424.68445     664.1678     583.7155   1424.68445     664.1678     583.7155
   1424.66919     664.1637     584.3356   1424.66919     664.1637     584.3356
   1424.65393     664.9449     586.1549   1424.65393     664.9449     586.1549
   1424.63867     663.5889     586.0281   1424.63867     663.5889     586.0281
   1424.62341     663.8335     587.1710   1424.62341     663.8335     587.1710
   1424.60815     664.4584     588.3223   1424.60815     664.4584     588.3223
   1424.59290     664.3050     588.7624   1424.59290     664.3050     588.7624
   1424.57764     664.8191     588.9090   1424.57764     664.8191     588.9090
   1424.56238     665.5244     590.0201   1424.56238     665.5244     590.0201
   1424.54712     664.3456     590.4426   1424.54712     664.3456     590.4426
   1424.53186     664.0925     591.4772   1424.53186     664.0925     591.4772
   1424.51660     664.0941     591.0210   1424.51660     664.0941     591.0210
   1424.50134     665.0464     592.1845   1424.50134     665.0464     592.1845
   1424.48608     665.4699     593.8543   1424.48608     665.4699     593.8543
   1424.47083     664.7859     593.8535   1424.47083     664.7859     593.8535
   1424.45557     664.0244     593.9611   1424.45557     664.0244     593.9611
   1424.44031     665.6993     595.4565   1424.44031     665.6993     595.4565
   1424.42505     663.7189     595.4968   1424.42505     663.7189     595.4968
   1424.40979     664.2654     596.6552   1424.40979     664.2654     596.6552
   1424.39453     665.1773     598.0660   1424.39453     665.1773     598.0660
   1424.37927     664.5234     597.4927   1424.37927     664.5234     597.4927
   1424.36401     664.3179     598.9379   1424.36401     664.3179     598.9379
   1424.34875     663.0082     600.0909   1424.34875     663.0082     600.0909
   1424.33350     663.6696     599.9460   1424.33350     663.6696     599.9460
   1424.31824     664.7758     601.1174   1424.31824     664.7758     601.1174
   1424.30298     664.0918     601.4673   1424.30298     664.0918     601.4673
   1424.28772     663.4837     601.6454   1424.28772     663.4837     601.6454
   1424.27246     664.6493     602.6118   1424.27246     664.6493     602.6118
   1424.25720     663.1168     603.4144   1424.25720     663.1168     603.4144
   1424.24194     664.2173     604.2618   1424.24194     664.2173     604.2618
   1424.22668     663.2717     605.0467   1424.22668     663.2717     605.0467
   1424.21143     664.5323     605.4672   1424.21143     664.5323     605.4672
   1424.19617     663.2683     606.4239   1424.19617     663.2683     606.4239
   1424.18091     663.9185     606.5367   1424.18091     663.9185     606.5367
   1424.16565     664.3964     607.1938   1424.16565     664.3964     607.1938
