#     FILENAME=!Skynet_57533_lach-hhg-246-2_20811_21215.cyb.fits
#     BASENAME=Skynet_57533_lach-hhg-246-2_20811_21215
#     SRC_NAME=lach-hhg-246-2
#     OBSERVER=ccmadison16_9505
#     DATE_OBS=2016-05-25T19:44:40.810
#        OBSID=20811
#      SCANNUM=21215
#          MJD=57533.8237
#          UTC=71169
#     SCANTYPE=track
#     DATAMODE=HIRES
#     TUNEFREQ=1420.0000
# Actual_FREQ1=1420.0000
# Actual_FREQ2=1420.0000
#    LO1Tuning=6870.000
#     RFFILTER=1355_1435
#        OBSBW=-15.6250
#        NCHAN=1024 
#        FOCUS=37.0270
#           RA=07:57:34.49
#          DEC=-29:03:07.80
#      RA(hrs)=7.959600
#     DEC(deg)=-29.052200
#    AZIM(deg)=161.485
#    ELEV(deg)=19.926
#     IFattens=10.00, 9.00
#      WARNING=None
#    TCAL_XL1=7.9635
#    TCAL_YR1=9.1340
#    TCAL_XL2=7.9635
#    TCAL_YR2=9.1340
#     TRX_XL1=11.7060
#     TRX_YR1=11.7060
#     TRX_XL2=11.7060
#     TRX_YR2=11.7060
#        TAVE=1.0000
#Freq1(MHz)          XL1          YR1  Freq2(MHz)          XL2          YR2 

   1427.81250     377.5484     244.7299   1427.81250     377.5484     244.7299
   1427.79724     378.3760     244.9120   1427.79724     378.3760     244.9120
   1427.78198     378.9963     246.0253   1427.78198     378.9963     246.0253
   1427.76672     380.3760     246.5565   1427.76672     380.3760     246.5565
   1427.75146     381.3482     246.9990   1427.75146     381.3482     246.9990
   1427.73621     381.7603     247.5131   1427.73621     381.7603     247.5131
   1427.72095     382.9148     248.0671   1427.72095     382.9148     248.0671
   1427.70569     383.7365     249.0764   1427.70569     383.7365     249.0764
   1427.69043     385.5589     249.8171   1427.69043     385.5589     249.8171
   1427.67517     386.0193     250.7576   1427.67517     386.0193     250.7576
   1427.65991     387.5090     251.7145   1427.65991     387.5090     251.7145
   1427.64465     388.7751     252.3972   1427.64465     388.7751     252.3972
   1427.62939     390.5280     253.5822   1427.62939     390.5280     253.5822
   1427.61414     391.2361     254.6534   1427.61414     391.2361     254.6534
   1427.59888     393.9435     255.3184   1427.59888     393.9435     255.3184
   1427.58362     394.4844     256.7499   1427.58362     394.4844     256.7499
   1427.56836     396.2398     258.0235   1427.56836     396.2398     258.0235
   1427.55310     397.7614     259.1095   1427.55310     397.7614     259.1095
   1427.53784     398.9389     260.2404   1427.53784     398.9389     260.2404
   1427.52258     400.6091     261.7805   1427.52258     400.6091     261.7805
   1427.50732     402.4506     262.5201   1427.50732     402.4506     262.5201
   1427.49207     404.1542     263.9525   1427.49207     404.1542     263.9525
   1427.47681     406.6128     264.9347   1427.47681     406.6128     264.9347
   1427.46155     408.1416     267.2831   1427.46155     408.1416     267.2831
   1427.44629     409.6496     268.5302   1427.44629     409.6496     268.5302
   1427.43103     411.9517     269.8828   1427.43103     411.9517     269.8828
   1427.41577     414.2587     271.6879   1427.41577     414.2587     271.6879
   1427.40051     416.5462     272.8610   1427.40051     416.5462     272.8610
   1427.38525     417.3486     274.4229   1427.38525     417.3486     274.4229
   1427.37000     419.8947     276.1487   1427.37000     419.8947     276.1487
   1427.35474     421.6995     277.9621   1427.35474     421.6995     277.9621
   1427.33948     424.2302     279.8329   1427.33948     424.2302     279.8329
   1427.32422     426.3257     281.5755   1427.32422     426.3257     281.5755
   1427.30896     428.8335     283.0476   1427.30896     428.8335     283.0476
   1427.29370     430.7601     285.0359   1427.29370     430.7601     285.0359
   1427.27844     433.2108     287.0902   1427.27844     433.2108     287.0902
   1427.26318     436.0921     288.7080   1427.26318     436.0921     288.7080
   1427.24792     438.1255     290.9937   1427.24792     438.1255     290.9937
   1427.23267     439.7280     293.2610   1427.23267     439.7280     293.2610
   1427.21741     442.7530     295.1699   1427.21741     442.7530     295.1699
   1427.20215     445.2421     296.9454   1427.20215     445.2421     296.9454
   1427.18689     447.5851     299.0145   1427.18689     447.5851     299.0145
   1427.17163     449.8337     301.0771   1427.17163     449.8337     301.0771
   1427.15637     452.6478     303.8022   1427.15637     452.6478     303.8022
   1427.14111     455.3731     305.6216   1427.14111     455.3731     305.6216
   1427.12585     458.3274     307.7605   1427.12585     458.3274     307.7605
   1427.11060     461.0847     309.9193   1427.11060     461.0847     309.9193
   1427.09534     463.3579     312.5273   1427.09534     463.3579     312.5273
   1427.08008     466.5286     314.3882   1427.08008     466.5286     314.3882
   1427.06482     469.1472     316.9001   1427.06482     469.1472     316.9001
   1427.04956     472.2137     319.0247   1427.04956     472.2137     319.0247
   1427.03430     474.1821     321.3230   1427.03430     474.1821     321.3230
   1427.01904     476.5513     323.4558   1427.01904     476.5513     323.4558
   1427.00378     479.7289     326.3302   1427.00378     479.7289     326.3302
   1426.98853     482.9069     328.7929   1426.98853     482.9069     328.7929
   1426.97327     485.9930     331.0203   1426.97327     485.9930     331.0203
   1426.95801     488.5618     333.6463   1426.95801     488.5618     333.6463
   1426.94275     491.5171     335.3527   1426.94275     491.5171     335.3527
   1426.92749     494.0673     338.4326   1426.92749     494.0673     338.4326
   1426.91223     496.6925     341.0142   1426.91223     496.6925     341.0142
   1426.89697     500.1528     343.1403   1426.89697     500.1528     343.1403
   1426.88171     503.0917     345.7680   1426.88171     503.0917     345.7680
   1426.86646     505.5298     348.6312   1426.86646     505.5298     348.6312
   1426.85120     509.1827     350.5109   1426.85120     509.1827     350.5109
   1426.83594     511.8685     353.1404   1426.83594     511.8685     353.1404
   1426.82068     514.8020     355.9918   1426.82068     514.8020     355.9918
   1426.80542     518.0190     358.5015   1426.80542     518.0190     358.5015
   1426.79016     520.4144     361.1121   1426.79016     520.4144     361.1121
   1426.77490     523.5862     363.9034   1426.77490     523.5862     363.9034
   1426.75964     526.6642     366.0150   1426.75964     526.6642     366.0150
   1426.74438     529.5890     369.1852   1426.74438     529.5890     369.1852
   1426.72913     532.9993     371.1464   1426.72913     532.9993     371.1464
   1426.71387     535.4594     374.2913   1426.71387     535.4594     374.2913
   1426.69861     539.2598     377.0444   1426.69861     539.2598     377.0444
   1426.68335     541.9152     379.8553   1426.68335     541.9152     379.8553
   1426.66809     544.4684     382.1188   1426.66809     544.4684     382.1188
   1426.65283     547.9683     385.0537   1426.65283     547.9683     385.0537
   1426.63757     550.6801     387.0661   1426.63757     550.6801     387.0661
   1426.62231     557.3467     391.5174   1426.62231     557.3467     391.5174
   1426.60706     559.8606     394.1374   1426.60706     559.8606     394.1374
   1426.59180     560.2043     395.8327   1426.59180     560.2043     395.8327
   1426.57654     563.6507     397.5446   1426.57654     563.6507     397.5446
   1426.56128     565.9472     399.6730   1426.56128     565.9472     399.6730
   1426.54602     569.5598     402.1840   1426.54602     569.5598     402.1840
   1426.53076     572.4189     404.7484   1426.53076     572.4189     404.7484
   1426.51550     575.0331     407.2257   1426.51550     575.0331     407.2257
   1426.50024     578.4456     409.3582   1426.50024     578.4456     409.3582
   1426.48499     580.4515     411.9330   1426.48499     580.4515     411.9330
   1426.46973     584.2484     415.0346   1426.46973     584.2484     415.0346
   1426.45447     586.7113     417.0888   1426.45447     586.7113     417.0888
   1426.43921     589.7427     419.0326   1426.43921     589.7427     419.0326
   1426.42395     593.1068     422.6477   1426.42395     593.1068     422.6477
   1426.40869     595.6514     424.1985   1426.40869     595.6514     424.1985
   1426.39343     598.4852     426.2151   1426.39343     598.4852     426.2151
   1426.37817     601.7962     429.9247   1426.37817     601.7962     429.9247
   1426.36292     603.6832     431.6654   1426.36292     603.6832     431.6654
   1426.34766     606.8874     433.1161   1426.34766     606.8874     433.1161
   1426.33240     610.0593     435.6926   1426.33240     610.0593     435.6926
   1426.31714     613.0659     438.4665   1426.31714     613.0659     438.4665
   1426.30188     615.7788     441.5402   1426.30188     615.7788     441.5402
   1426.28662     617.3700     442.1320   1426.28662     617.3700     442.1320
   1426.27136     621.0666     445.6631   1426.27136     621.0666     445.6631
   1426.25610     624.1553     447.6179   1426.25610     624.1553     447.6179
   1426.24084     625.7350     449.7818   1426.24084     625.7350     449.7818
   1426.22559     628.4068     451.5081   1426.22559     628.4068     451.5081
   1426.21033     630.7017     454.2938   1426.21033     630.7017     454.2938
   1426.19507     634.4464     455.3378   1426.19507     634.4464     455.3378
   1426.17981     635.5308     457.4126   1426.17981     635.5308     457.4126
   1426.16455     639.6872     460.4250   1426.16455     639.6872     460.4250
   1426.14929     642.2595     462.4450   1426.14929     642.2595     462.4450
   1426.13403     644.8157     464.6315   1426.13403     644.8157     464.6315
   1426.11877     647.7218     466.4755   1426.11877     647.7218     466.4755
   1426.10352     649.4905     467.8687   1426.10352     649.4905     467.8687
   1426.08826     651.5859     469.7683   1426.08826     651.5859     469.7683
   1426.07300     654.0919     472.1420   1426.07300     654.0919     472.1420
   1426.05774     656.6532     473.3553   1426.05774     656.6532     473.3553
   1426.04248     658.0676     475.2467   1426.04248     658.0676     475.2467
   1426.02722     662.3160     477.4261   1426.02722     662.3160     477.4261
   1426.01196     665.2986     477.9398   1426.01196     665.2986     477.9398
   1425.99670     666.2159     480.5397   1425.99670     666.2159     480.5397
   1425.98145     667.7866     482.4938   1425.98145     667.7866     482.4938
   1425.96619     669.8757     483.5007   1425.96619     669.8757     483.5007
   1425.95093     673.0459     485.9520   1425.95093     673.0459     485.9520
   1425.93567     674.6980     487.3270   1425.93567     674.6980     487.3270
   1425.92041     677.4481     488.7064   1425.92041     677.4481     488.7064
   1425.90515     679.5238     489.7284   1425.90515     679.5238     489.7284
   1425.88989     682.2321     491.9344   1425.88989     682.2321     491.9344
   1425.87463     683.5748     494.4089   1425.87463     683.5748     494.4089
   1425.85938     686.2458     494.3554   1425.85938     686.2458     494.3554
   1425.84412     687.7621     496.1575   1425.84412     687.7621     496.1575
   1425.82886     689.6246     496.9588   1425.82886     689.6246     496.9588
   1425.81360     691.4125     498.1436   1425.81360     691.4125     498.1436
   1425.79834     693.6716     501.0158   1425.79834     693.6716     501.0158
   1425.78308     694.4285     501.4974   1425.78308     694.4285     501.4974
   1425.76782     696.7715     502.3071   1425.76782     696.7715     502.3071
   1425.75256     700.1216     504.4270   1425.75256     700.1216     504.4270
   1425.73730     700.9526     505.3734   1425.73730     700.9526     505.3734
   1425.72205     701.9164     506.8684   1425.72205     701.9164     506.8684
   1425.70679     703.7706     508.4185   1425.70679     703.7706     508.4185
   1425.69153     707.1450     509.8947   1425.69153     707.1450     509.8947
   1425.67627     708.8189     510.4132   1425.67627     708.8189     510.4132
   1425.66101     709.2141     511.0236   1425.66101     709.2141     511.0236
   1425.64575     711.5189     511.7880   1425.64575     711.5189     511.7880
   1425.63049     713.0943     513.7781   1425.63049     713.0943     513.7781
   1425.61523     713.4047     515.2340   1425.61523     713.4047     515.2340
   1425.59998     715.0414     516.1581   1425.59998     715.0414     516.1581
   1425.58472     717.1344     517.2628   1425.58472     717.1344     517.2628
   1425.56946     719.6590     518.7972   1425.56946     719.6590     518.7972
   1425.55420     719.9173     519.1927   1425.55420     719.9173     519.1927
   1425.53894     722.6126     520.2892   1425.53894     722.6126     520.2892
   1425.52368     723.0004     520.8174   1425.52368     723.0004     520.8174
   1425.50842     723.6369     522.1080   1425.50842     723.6369     522.1080
   1425.49316     726.8916     522.6370   1425.49316     726.8916     522.6370
   1425.47791     727.3306     523.4659   1425.47791     727.3306     523.4659
   1425.46265     729.0061     524.5969   1425.46265     729.0061     524.5969
   1425.44739     730.2957     524.8047   1425.44739     730.2957     524.8047
   1425.43213     731.0794     526.6776   1425.43213     731.0794     526.6776
   1425.41687     732.1245     527.7708   1425.41687     732.1245     527.7708
   1425.40161     731.4824     527.2373   1425.40161     731.4824     527.2373
   1425.38635     733.7002     528.3674   1425.38635     733.7002     528.3674
   1425.37109     734.3326     529.4453   1425.37109     734.3326     529.4453
   1425.35583     735.5284     529.8575   1425.35583     735.5284     529.8575
   1425.34058     737.0095     530.9663   1425.34058     737.0095     530.9663
   1425.32532     739.1653     530.9394   1425.32532     739.1653     530.9394
   1425.31006     739.2056     531.9159   1425.31006     739.2056     531.9159
   1425.29480     740.5921     532.0460   1425.29480     740.5921     532.0460
   1425.27954     741.7598     533.7660   1425.27954     741.7598     533.7660
   1425.26428     742.5366     533.5837   1425.26428     742.5366     533.5837
   1425.24902     742.5403     534.5607   1425.24902     742.5403     534.5607
   1425.23376     742.3339     535.5095   1425.23376     742.3339     535.5095
   1425.21851     743.5651     535.6489   1425.21851     743.5651     535.6489
   1425.20325     745.6137     535.9279   1425.20325     745.6137     535.9279
   1425.18799     745.5580     536.7366   1425.18799     745.5580     536.7366
   1425.17273     746.5400     537.0346   1425.17273     746.5400     537.0346
   1425.15747     747.0468     538.3658   1425.15747     747.0468     538.3658
   1425.14221     748.3156     538.2902   1425.14221     748.3156     538.2902
   1425.12695     747.5521     539.0916   1425.12695     747.5521     539.0916
   1425.11169     748.8276     539.8131   1425.11169     748.8276     539.8131
   1425.09644     749.2932     541.0801   1425.09644     749.2932     541.0801
   1425.08118     749.7025     539.7720   1425.08118     749.7025     539.7720
   1425.06592     750.5610     541.2651   1425.06592     750.5610     541.2651
   1425.05066     750.5203     541.1479   1425.05066     750.5203     541.1479
   1425.03540     750.8710     541.5729   1425.03540     750.8710     541.5729
   1425.02014     753.1287     542.3653   1425.02014     753.1287     542.3653
   1425.00488     753.9194     541.8549   1425.00488     753.9194     541.8549
   1424.98962     753.2794     543.3842   1424.98962     753.2794     543.3842
   1424.97437     752.8560     543.9484   1424.97437     752.8560     543.9484
   1424.95911     751.9081     543.8075   1424.95911     751.9081     543.8075
   1424.94385     754.0648     543.6915   1424.94385     754.0648     543.6915
   1424.92859     753.6024     544.8934   1424.92859     753.6024     544.8934
   1424.91333     752.6721     545.4440   1424.91333     752.6721     545.4440
   1424.89807     754.8197     546.3419   1424.89807     754.8197     546.3419
   1424.88281     754.1233     545.8074   1424.88281     754.1233     545.8074
   1424.86755     756.3384     546.0245   1424.86755     756.3384     546.0245
   1424.85229     755.1838     546.2302   1424.85229     755.1838     546.2302
   1424.83704     756.3461     546.9229   1424.83704     756.3461     546.9229
   1424.82178     755.2463     546.5908   1424.82178     755.2463     546.5908
   1424.80652     755.5483     547.6229   1424.80652     755.5483     547.6229
   1424.79126     757.0017     547.6490   1424.79126     757.0017     547.6490
   1424.77600     756.1807     548.4398   1424.77600     756.1807     548.4398
   1424.76074     754.6885     548.6519   1424.76074     754.6885     548.6519
   1424.74548     756.4114     548.1033   1424.74548     756.4114     548.1033
   1424.73022     756.3116     548.3767   1424.73022     756.3116     548.3767
   1424.71497     755.5081     548.4529   1424.71497     755.5081     548.4529
   1424.69971     756.2018     548.7574   1424.69971     756.2018     548.7574
   1424.68445     756.8672     548.8516   1424.68445     756.8672     548.8516
   1424.66919     756.5196     549.9915   1424.66919     756.5196     549.9915
   1424.65393     755.9581     549.6306   1424.65393     755.9581     549.6306
   1424.63867     756.2537     549.5229   1424.63867     756.2537     549.5229
   1424.62341     756.0507     549.8995   1424.62341     756.0507     549.8995
   1424.60815     757.1744     550.7133   1424.60815     757.1744     550.7133
   1424.59290     756.4523     550.9690   1424.59290     756.4523     550.9690
   1424.57764     756.4364     551.4628   1424.57764     756.4364     551.4628
   1424.56238     757.5020     551.5443   1424.56238     757.5020     551.5443
   1424.54712     756.6122     550.9167   1424.54712     756.6122     550.9167
   1424.53186     755.5529     551.9384   1424.53186     755.5529     551.9384
   1424.51660     755.4872     552.3732   1424.51660     755.4872     552.3732
   1424.50134     755.3812     552.4210   1424.50134     755.3812     552.4210
   1424.48608     755.5175     552.3355   1424.48608     755.5175     552.3355
   1424.47083     754.1244     551.8970   1424.47083     754.1244     551.8970
   1424.45557     754.7009     553.8837   1424.45557     754.7009     553.8837
   1424.44031     755.5624     553.0379   1424.44031     755.5624     553.0379
   1424.42505     754.1425     553.5058   1424.42505     754.1425     553.5058
   1424.40979     754.5201     553.5170   1424.40979     754.5201     553.5170
   1424.39453     754.7285     553.6183   1424.39453     754.7285     553.6183
   1424.37927     753.6386     554.5861   1424.37927     753.6386     554.5861
   1424.36401     753.1876     553.3278   1424.36401     753.1876     553.3278
   1424.34875     753.0535     553.6761   1424.34875     753.0535     553.6761
   1424.33350     752.4612     554.3206   1424.33350     752.4612     554.3206
   1424.31824     753.5179     554.2922   1424.31824     753.5179     554.2922
   1424.30298     753.1091     554.3484   1424.30298     753.1091     554.3484
   1424.28772     752.9193     554.3215   1424.28772     752.9193     554.3215
   1424.27246     751.7701     554.8416   1424.27246     751.7701     554.8416
   1424.25720     752.3748     555.4421   1424.25720     752.3748     555.4421
   1424.24194     752.2901     555.6287   1424.24194     752.2901     555.6287
   1424.22668     751.0825     555.3576   1424.22668     751.0825     555.3576
   1424.21143     750.9600     555.4786   1424.21143     750.9600     555.4786
   1424.19617     750.1055     555.8812   1424.19617     750.1055     555.8812
   1424.18091     750.7421     556.1026   1424.18091     750.7421     556.1026
   1424.16565     748.9966     556.5575   1424.16565     748.9966     556.5575
