#     FILENAME=!Skynet_57528_lach-hhg-164_20538_20988.cyb.fits
#     BASENAME=Skynet_57528_lach-hhg-164_20538_20988
#     SRC_NAME=lach-hhg-164
#     OBSERVER=hhgmadison16_9500
#     DATE_OBS=2016-05-20T18:06:21.120
#        OBSID=20538
#      SCANNUM=20988
#          MJD=57528.7555
#          UTC=65269
#     SCANTYPE=track
#     DATAMODE=HIRES
#     TUNEFREQ=1420.0000
# Actual_FREQ1=1420.0000
# Actual_FREQ2=1420.0000
#    LO1Tuning=6870.000
#     RFFILTER=1355_1435
#        OBSBW=-15.6250
#        NCHAN=1024 
#        FOCUS=37.0709
#           RA=05:00:53.82
#          DEC=42:08:35.51
#      RA(hrs)=5.014900
#     DEC(deg)=42.143200
#    AZIM(deg)=43.498
#    ELEV(deg)=84.646
#     IFattens=10.00, 9.00
#      WARNING=None
#    TCAL_XL1=7.9635
#    TCAL_YR1=9.1340
#    TCAL_XL2=7.9635
#    TCAL_YR2=9.1340
#     TRX_XL1=11.7060
#     TRX_YR1=11.7060
#     TRX_XL2=11.7060
#     TRX_YR2=11.7060
#        TAVE=1.0000
#Freq1(MHz)          XL1          YR1  Freq2(MHz)          XL2          YR2 

   1427.81250     374.8958     333.8127   1427.81250     374.8958     333.8127
   1427.79724     375.7725     335.5456   1427.79724     375.7725     335.5456
   1427.78198     376.3008     336.4524   1427.78198     376.3008     336.4524
   1427.76672     376.2551     338.4610   1427.76672     376.2551     338.4610
   1427.75146     377.7702     340.9129   1427.75146     377.7702     340.9129
   1427.73621     378.8347     342.0171   1427.73621     378.8347     342.0171
   1427.72095     379.7858     344.2233   1427.72095     379.7858     344.2233
   1427.70569     380.6404     345.1488   1427.70569     380.6404     345.1488
   1427.69043     381.2193     347.4236   1427.69043     381.2193     347.4236
   1427.67517     383.0343     349.3920   1427.67517     383.0343     349.3920
   1427.65991     383.6406     351.2240   1427.65991     383.6406     351.2240
   1427.64465     384.8297     352.9757   1427.64465     384.8297     352.9757
   1427.62939     385.6080     354.9526   1427.62939     385.6080     354.9526
   1427.61414     387.3761     357.7420   1427.61414     387.3761     357.7420
   1427.59888     388.3400     359.5865   1427.59888     388.3400     359.5865
   1427.58362     390.0928     361.8273   1427.58362     390.0928     361.8273
   1427.56836     390.9938     363.9445   1427.56836     390.9938     363.9445
   1427.55310     392.0335     366.0067   1427.55310     392.0335     366.0067
   1427.53784     394.0597     368.7822   1427.53784     394.0597     368.7822
   1427.52258     395.7839     371.3711   1427.52258     395.7839     371.3711
   1427.50732     397.4619     373.1277   1427.50732     397.4619     373.1277
   1427.49207     399.0453     375.5368   1427.49207     399.0453     375.5368
   1427.47681     400.2459     378.2418   1427.47681     400.2459     378.2418
   1427.46155     401.9052     380.4259   1427.46155     401.9052     380.4259
   1427.44629     404.2168     383.7093   1427.44629     404.2168     383.7093
   1427.43103     405.9803     385.4248   1427.43103     405.9803     385.4248
   1427.41577     407.4467     387.7516   1427.41577     407.4467     387.7516
   1427.40051     409.5125     390.8694   1427.40051     409.5125     390.8694
   1427.38525     411.4806     393.1576   1427.38525     411.4806     393.1576
   1427.37000     413.9507     395.8356   1427.37000     413.9507     395.8356
   1427.35474     416.0446     398.8742   1427.35474     416.0446     398.8742
   1427.33948     417.9214     401.0710   1427.33948     417.9214     401.0710
   1427.32422     419.4708     403.9046   1427.32422     419.4708     403.9046
   1427.30896     421.6150     407.8318   1427.30896     421.6150     407.8318
   1427.29370     424.3470     409.8433   1427.29370     424.3470     409.8433
   1427.27844     425.8362     413.3912   1427.27844     425.8362     413.3912
   1427.26318     428.9440     416.1081   1427.26318     428.9440     416.1081
   1427.24792     431.6302     418.4419   1427.24792     431.6302     418.4419
   1427.23267     433.1524     421.0819   1427.23267     433.1524     421.0819
   1427.21741     436.0376     423.6239   1427.21741     436.0376     423.6239
   1427.20215     438.2234     426.6981   1427.20215     438.2234     426.6981
   1427.18689     440.8100     430.3365   1427.18689     440.8100     430.3365
   1427.17163     443.0818     433.1614   1427.17163     443.0818     433.1614
   1427.15637     445.8024     435.9274   1427.15637     445.8024     435.9274
   1427.14111     448.7349     439.0159   1427.14111     448.7349     439.0159
   1427.12585     451.5184     441.7022   1427.12585     451.5184     441.7022
   1427.11060     453.6014     444.6191   1427.11060     453.6014     444.6191
   1427.09534     455.4043     448.2398   1427.09534     455.4043     448.2398
   1427.08008     459.6471     450.6308   1427.08008     459.6471     450.6308
   1427.06482     461.8083     454.0858   1427.06482     461.8083     454.0858
   1427.04956     464.6890     457.0830   1427.04956     464.6890     457.0830
   1427.03430     467.4355     459.9705   1427.03430     467.4355     459.9705
   1427.01904     470.0984     462.9466   1427.01904     470.0984     462.9466
   1427.00378     473.2776     466.2134   1427.00378     473.2776     466.2134
   1426.98853     476.4597     468.8731   1426.98853     476.4597     468.8731
   1426.97327     478.7109     472.6134   1426.97327     478.7109     472.6134
   1426.95801     481.7262     475.1890   1426.95801     481.7262     475.1890
   1426.94275     484.7224     478.0118   1426.94275     484.7224     478.0118
   1426.92749     488.0818     481.1405   1426.92749     488.0818     481.1405
   1426.91223     490.2211     483.5526   1426.91223     490.2211     483.5526
   1426.89697     492.5503     486.5945   1426.89697     492.5503     486.5945
   1426.88171     496.2224     489.4727   1426.88171     496.2224     489.4727
   1426.86646     498.8365     493.5188   1426.86646     498.8365     493.5188
   1426.85120     502.6054     495.3826   1426.85120     502.6054     495.3826
   1426.83594     505.6512     498.2462   1426.83594     505.6512     498.2462
   1426.82068     508.6326     501.5666   1426.82068     508.6326     501.5666
   1426.80542     512.1207     503.8022   1426.80542     512.1207     503.8022
   1426.79016     514.3966     507.1729   1426.79016     514.3966     507.1729
   1426.77490     518.2720     509.5247   1426.77490     518.2720     509.5247
   1426.75964     520.8989     512.7418   1426.75964     520.8989     512.7418
   1426.74438     524.4818     515.0173   1426.74438     524.4818     515.0173
   1426.72913     526.6650     518.3815   1426.72913     526.6650     518.3815
   1426.71387     530.0234     521.1638   1426.71387     530.0234     521.1638
   1426.69861     532.6797     523.4794   1426.69861     532.6797     523.4794
   1426.68335     537.4323     525.8438   1426.68335     537.4323     525.8438
   1426.66809     539.5105     528.9339   1426.66809     539.5105     528.9339
   1426.65283     542.4955     531.6924   1426.65283     542.4955     531.6924
   1426.63757     545.8845     534.4976   1426.63757     545.8845     534.4976
   1426.62231     554.8919     537.9039   1426.62231     554.8919     537.9039
   1426.60706     551.6309     540.4844   1426.60706     551.6309     540.4844
   1426.59180     554.6907     541.5068   1426.59180     554.6907     541.5068
   1426.57654     558.2372     544.8617   1426.57654     558.2372     544.8617
   1426.56128     561.4666     547.3757   1426.56128     561.4666     547.3757
   1426.54602     564.8495     550.3161   1426.54602     564.8495     550.3161
   1426.53076     567.6210     552.1022   1426.53076     567.6210     552.1022
   1426.51550     570.8204     554.9945   1426.51550     570.8204     554.9945
   1426.50024     574.2559     556.9578   1426.50024     574.2559     556.9578
   1426.48499     577.4213     559.8838   1426.48499     577.4213     559.8838
   1426.46973     580.5151     561.8705   1426.46973     580.5151     561.8705
   1426.45447     584.2447     565.0323   1426.45447     584.2447     565.0323
   1426.43921     586.3452     567.4625   1426.43921     586.3452     567.4625
   1426.42395     589.4572     569.5821   1426.42395     589.4572     569.5821
   1426.40869     591.7409     570.8341   1426.40869     591.7409     570.8341
   1426.39343     595.2945     573.1811   1426.39343     595.2945     573.1811
   1426.37817     599.2152     574.6909   1426.37817     599.2152     574.6909
   1426.36292     601.8459     577.5042   1426.36292     601.8459     577.5042
   1426.34766     605.5292     579.9069   1426.34766     605.5292     579.9069
   1426.33240     607.3975     580.5406   1426.33240     607.3975     580.5406
   1426.31714     611.0577     583.7809   1426.31714     611.0577     583.7809
   1426.30188     612.8635     585.5751   1426.30188     612.8635     585.5751
   1426.28662     615.4932     588.1218   1426.28662     615.4932     588.1218
   1426.27136     619.7858     589.0700   1426.27136     619.7858     589.0700
   1426.25610     621.8137     592.0306   1426.25610     621.8137     592.0306
   1426.24084     625.2457     593.4896   1426.24084     625.2457     593.4896
   1426.22559     627.7194     595.6201   1426.22559     627.7194     595.6201
   1426.21033     631.2586     598.0224   1426.21033     631.2586     598.0224
   1426.19507     634.5513     599.1608   1426.19507     634.5513     599.1608
   1426.17981     636.8740     599.0821   1426.17981     636.8740     599.0821
   1426.16455     639.1244     602.5303   1426.16455     639.1244     602.5303
   1426.14929     641.7595     603.7998   1426.14929     641.7595     603.7998
   1426.13403     645.1083     604.8063   1426.13403     645.1083     604.8063
   1426.11877     647.1530     606.9673   1426.11877     647.1530     606.9673
   1426.10352     649.9224     608.7024   1426.10352     649.9224     608.7024
   1426.08826     653.5934     609.9081   1426.08826     653.5934     609.9081
   1426.07300     655.3312     611.8646   1426.07300     655.3312     611.8646
   1426.05774     658.7208     614.0825   1426.05774     658.7208     614.0825
   1426.04248     661.5388     614.6973   1426.04248     661.5388     614.6973
   1426.02722     662.8102     616.3381   1426.02722     662.8102     616.3381
   1426.01196     665.4855     617.7968   1426.01196     665.4855     617.7968
   1425.99670     668.4622     619.2929   1425.99670     668.4622     619.2929
   1425.98145     672.2833     620.8584   1425.98145     672.2833     620.8584
   1425.96619     672.8447     620.4152   1425.96619     672.8447     620.4152
   1425.95093     675.6766     622.3061   1425.95093     675.6766     622.3061
   1425.93567     677.4167     623.4722   1425.93567     677.4167     623.4722
   1425.92041     680.0790     624.2996   1425.92041     680.0790     624.2996
   1425.90515     682.4362     626.4536   1425.90515     682.4362     626.4536
   1425.88989     684.3478     626.4236   1425.88989     684.3478     626.4236
   1425.87463     686.4821     628.0956   1425.87463     686.4821     628.0956
   1425.85938     689.6235     628.5414   1425.85938     689.6235     628.5414
   1425.84412     691.3634     630.6707   1425.84412     691.3634     630.6707
   1425.82886     693.7875     631.6060   1425.82886     693.7875     631.6060
   1425.81360     697.3834     632.3669   1425.81360     697.3834     632.3669
   1425.79834     698.7825     634.2930   1425.79834     698.7825     634.2930
   1425.78308     699.6541     633.7095   1425.78308     699.6541     633.7095
   1425.76782     702.6682     635.3500   1425.76782     702.6682     635.3500
   1425.75256     704.1796     635.5374   1425.75256     704.1796     635.5374
   1425.73730     706.5614     636.3390   1425.73730     706.5614     636.3390
   1425.72205     707.6782     637.2619   1425.72205     707.6782     637.2619
   1425.70679     710.6488     638.2913   1425.70679     710.6488     638.2913
   1425.69153     712.0165     639.0571   1425.69153     712.0165     639.0571
   1425.67627     713.8517     640.3676   1425.67627     713.8517     640.3676
   1425.66101     716.0716     640.8736   1425.66101     716.0716     640.8736
   1425.64575     717.5639     640.7056   1425.64575     717.5639     640.7056
   1425.63049     720.2589     641.1624   1425.63049     720.2589     641.1624
   1425.61523     721.3779     642.2031   1425.61523     721.3779     642.2031
   1425.59998     723.3626     642.3113   1425.59998     723.3626     642.3113
   1425.58472     725.4302     643.3303   1425.58472     725.4302     643.3303
   1425.56946     727.3069     643.6368   1425.56946     727.3069     643.6368
   1425.55420     729.5092     644.1285   1425.55420     729.5092     644.1285
   1425.53894     730.0907     643.9478   1425.53894     730.0907     643.9478
   1425.52368     731.9431     645.9064   1425.52368     731.9431     645.9064
   1425.50842     731.7570     645.8333   1425.50842     731.7570     645.8333
   1425.49316     733.8452     646.4254   1425.49316     733.8452     646.4254
   1425.47791     735.2706     646.5839   1425.47791     735.2706     646.5839
   1425.46265     736.3903     647.3259   1425.46265     736.3903     647.3259
   1425.44739     736.6480     646.6380   1425.44739     736.6480     646.6380
   1425.43213     739.2787     647.9500   1425.43213     739.2787     647.9500
   1425.41687     742.0292     649.0792   1425.41687     742.0292     649.0792
   1425.40161     742.0798     648.6381   1425.40161     742.0798     648.6381
   1425.38635     743.8142     648.7433   1425.38635     743.8142     648.7433
   1425.37109     744.6274     647.3511   1425.37109     744.6274     647.3511
   1425.35583     744.6630     649.5640   1425.35583     744.6630     649.5640
   1425.34058     746.3229     648.9844   1425.34058     746.3229     648.9844
   1425.32532     747.8275     649.1126   1425.32532     747.8275     649.1126
   1425.31006     747.6373     649.1083   1425.31006     747.6373     649.1083
   1425.29480     750.2572     649.8295   1425.29480     750.2572     649.8295
   1425.27954     750.7893     649.5967   1425.27954     750.7893     649.5967
   1425.26428     751.8531     649.6056   1425.26428     751.8531     649.6056
   1425.24902     752.8803     649.3502   1425.24902     752.8803     649.3502
   1425.23376     754.8300     649.1269   1425.23376     754.8300     649.1269
   1425.21851     754.5749     650.2290   1425.21851     754.5749     650.2290
   1425.20325     755.0245     650.2189   1425.20325     755.0245     650.2189
   1425.18799     758.5097     649.4849   1425.18799     758.5097     649.4849
   1425.17273     758.0008     650.8340   1425.17273     758.0008     650.8340
   1425.15747     759.0483     650.3796   1425.15747     759.0483     650.3796
   1425.14221     758.7992     650.1487   1425.14221     758.7992     650.1487
   1425.12695     759.1478     650.8336   1425.12695     759.1478     650.8336
   1425.11169     759.7360     649.0061   1425.11169     759.7360     649.0061
   1425.09644     762.0140     649.8292   1425.09644     762.0140     649.8292
   1425.08118     761.9382     649.4523   1425.08118     761.9382     649.4523
   1425.06592     761.6986     648.8173   1425.06592     761.6986     648.8173
   1425.05066     762.9276     648.7083   1425.05066     762.9276     648.7083
   1425.03540     763.1703     649.2167   1425.03540     763.1703     649.2167
   1425.02014     764.6451     648.1479   1425.02014     764.6451     648.1479
   1425.00488     763.8811     648.0524   1425.00488     763.8811     648.0524
   1424.98962     765.9402     648.6557   1424.98962     765.9402     648.6557
   1424.97437     765.5440     647.2495   1424.97437     765.5440     647.2495
   1424.95911     765.9503     648.7057   1424.95911     765.9503     648.7057
   1424.94385     766.1044     647.6971   1424.94385     766.1044     647.6971
   1424.92859     767.2643     647.7610   1424.92859     767.2643     647.7610
   1424.91333     766.9801     647.2372   1424.91333     766.9801     647.2372
   1424.89807     767.3201     646.8921   1424.89807     767.3201     646.8921
   1424.88281     766.8215     645.6488   1424.88281     766.8215     645.6488
   1424.86755     769.9149     645.4232   1424.86755     769.9149     645.4232
   1424.85229     769.3324     646.0439   1424.85229     769.3324     646.0439
   1424.83704     769.1161     643.8528   1424.83704     769.1161     643.8528
   1424.82178     768.1359     644.4453   1424.82178     768.1359     644.4453
   1424.80652     769.2872     644.5516   1424.80652     769.2872     644.5516
   1424.79126     770.0648     644.2731   1424.79126     770.0648     644.2731
   1424.77600     769.5602     643.7333   1424.77600     769.5602     643.7333
   1424.76074     770.1021     643.2972   1424.76074     770.1021     643.2972
   1424.74548     768.6733     644.3124   1424.74548     768.6733     644.3124
   1424.73022     768.4531     642.4177   1424.73022     768.4531     642.4177
   1424.71497     770.0932     642.6113   1424.71497     770.0932     642.6113
   1424.69971     769.8407     640.9586   1424.69971     769.8407     640.9586
   1424.68445     770.5892     641.3608   1424.68445     770.5892     641.3608
   1424.66919     769.5798     640.2804   1424.66919     769.5798     640.2804
   1424.65393     769.6069     639.8492   1424.65393     769.6069     639.8492
   1424.63867     770.8363     639.2590   1424.63867     770.8363     639.2590
   1424.62341     770.6667     639.7108   1424.62341     770.6667     639.7108
   1424.60815     769.3912     638.2224   1424.60815     769.3912     638.2224
   1424.59290     768.8409     638.1819   1424.59290     768.8409     638.1819
   1424.57764     769.7093     638.4341   1424.57764     769.7093     638.4341
   1424.56238     769.5630     637.5052   1424.56238     769.5630     637.5052
   1424.54712     769.2010     636.3013   1424.54712     769.2010     636.3013
   1424.53186     769.7581     636.3436   1424.53186     769.7581     636.3436
   1424.51660     768.5847     635.2899   1424.51660     768.5847     635.2899
   1424.50134     770.6689     635.5023   1424.50134     770.6689     635.5023
   1424.48608     768.5376     634.7897   1424.48608     768.5376     634.7897
   1424.47083     768.7924     633.8779   1424.47083     768.7924     633.8779
   1424.45557     768.4839     633.1636   1424.45557     768.4839     633.1636
   1424.44031     768.1187     632.9830   1424.44031     768.1187     632.9830
   1424.42505     767.6202     631.7198   1424.42505     767.6202     631.7198
   1424.40979     768.7222     631.9681   1424.40979     768.7222     631.9681
   1424.39453     768.4265     631.5337   1424.39453     768.4265     631.5337
   1424.37927     767.1788     630.6739   1424.37927     767.1788     630.6739
   1424.36401     767.9508     629.6911   1424.36401     767.9508     629.6911
   1424.34875     767.6771     630.0286   1424.34875     767.6771     630.0286
   1424.33350     766.8466     628.8837   1424.33350     766.8466     628.8837
   1424.31824     768.1853     627.2818   1424.31824     768.1853     627.2818
   1424.30298     766.4548     628.0490   1424.30298     766.4548     628.0490
   1424.28772     766.2748     627.2352   1424.28772     766.2748     627.2352
   1424.27246     765.8130     626.8286   1424.27246     765.8130     626.8286
   1424.25720     765.2193     625.4484   1424.25720     765.2193     625.4484
   1424.24194     764.8170     626.1609   1424.24194     764.8170     626.1609
   1424.22668     765.3896     623.0943   1424.22668     765.3896     623.0943
   1424.21143     765.2070     624.0277   1424.21143     765.2070     624.0277
   1424.19617     763.3253     623.1074   1424.19617     763.3253     623.1074
   1424.18091     764.0557     622.3846   1424.18091     764.0557     622.3846
   1424.16565     762.2755     622.3918   1424.16565     762.2755     622.3918
