#     FILENAME=!Skynet_57528_lach-cc-219_20631_21040.cyb.fits
#     BASENAME=Skynet_57528_lach-cc-219_20631_21040
#     SRC_NAME=lach-cc-219
#     OBSERVER=ccmadison16_9505
#     DATE_OBS=2016-05-20T19:56:45.620
#        OBSID=20631
#      SCANNUM=21040
#          MJD=57528.8321
#          UTC=71896
#     SCANTYPE=track
#     DATAMODE=HIRES
#     TUNEFREQ=1420.0000
# Actual_FREQ1=1420.0000
# Actual_FREQ2=1420.0000
#    LO1Tuning=6870.000
#     RFFILTER=1355_1435
#        OBSBW=-15.6250
#        NCHAN=1024 
#        FOCUS=37.0709
#           RA=07:02:32.99
#          DEC=-05:23:52.46
#      RA(hrs)=7.042500
#     DEC(deg)=-5.397900
#    AZIM(deg)=168.659
#    ELEV(deg)=45.429
#     IFattens=10.00, 9.00
#      WARNING=None
#    TCAL_XL1=7.9635
#    TCAL_YR1=9.1340
#    TCAL_XL2=7.9635
#    TCAL_YR2=9.1340
#     TRX_XL1=11.7060
#     TRX_YR1=11.7060
#     TRX_XL2=11.7060
#     TRX_YR2=11.7060
#        TAVE=1.0000
#Freq1(MHz)          XL1          YR1  Freq2(MHz)          XL2          YR2 

   1427.81250     352.5951     262.5898   1427.81250     352.5951     262.5898
   1427.79724     353.7673     262.6941   1427.79724     353.7673     262.6941
   1427.78198     354.2823     262.9924   1427.78198     354.2823     262.9924
   1427.76672     355.3364     263.5087   1427.76672     355.3364     263.5087
   1427.75146     355.0069     264.0580   1427.75146     355.0069     264.0580
   1427.73621     356.6429     264.4682   1427.73621     356.6429     264.4682
   1427.72095     357.1651     265.4099   1427.72095     357.1651     265.4099
   1427.70569     358.4607     266.2986   1427.70569     358.4607     266.2986
   1427.69043     359.4944     266.8908   1427.69043     359.4944     266.8908
   1427.67517     360.0098     267.4460   1427.67517     360.0098     267.4460
   1427.65991     360.6927     268.7780   1427.65991     360.6927     268.7780
   1427.64465     362.8917     269.0291   1427.64465     362.8917     269.0291
   1427.62939     363.8514     270.1526   1427.62939     363.8514     270.1526
   1427.61414     364.8700     271.2181   1427.61414     364.8700     271.2181
   1427.59888     366.1615     271.7984   1427.59888     366.1615     271.7984
   1427.58362     367.4112     272.9876   1427.58362     367.4112     272.9876
   1427.56836     368.8617     273.6426   1427.56836     368.8617     273.6426
   1427.55310     369.7325     275.1392   1427.55310     369.7325     275.1392
   1427.53784     371.4006     276.1255   1427.53784     371.4006     276.1255
   1427.52258     373.1243     276.8346   1427.52258     373.1243     276.8346
   1427.50732     374.4106     278.3907   1427.50732     374.4106     278.3907
   1427.49207     375.5223     279.5992   1427.49207     375.5223     279.5992
   1427.47681     377.8743     280.8540   1427.47681     377.8743     280.8540
   1427.46155     380.0685     282.3108   1427.46155     380.0685     282.3108
   1427.44629     380.8488     283.7433   1427.44629     380.8488     283.7433
   1427.43103     383.0268     284.7055   1427.43103     383.0268     284.7055
   1427.41577     384.8496     285.6426   1427.41577     384.8496     285.6426
   1427.40051     386.1738     287.3457   1427.40051     386.1738     287.3457
   1427.38525     388.6595     288.9257   1427.38525     388.6595     288.9257
   1427.37000     390.3839     290.0430   1427.37000     390.3839     290.0430
   1427.35474     392.1181     291.8160   1427.35474     392.1181     291.8160
   1427.33948     394.3529     292.8850   1427.33948     394.3529     292.8850
   1427.32422     395.7428     295.1399   1427.32422     395.7428     295.1399
   1427.30896     398.2106     296.4386   1427.30896     398.2106     296.4386
   1427.29370     400.4770     298.5202   1427.29370     400.4770     298.5202
   1427.27844     401.9643     299.8529   1427.27844     401.9643     299.8529
   1427.26318     404.0416     301.5328   1427.26318     404.0416     301.5328
   1427.24792     406.4136     303.3914   1427.24792     406.4136     303.3914
   1427.23267     408.9587     305.2288   1427.23267     408.9587     305.2288
   1427.21741     411.6273     306.8368   1427.21741     411.6273     306.8368
   1427.20215     413.4964     308.5432   1427.20215     413.4964     308.5432
   1427.18689     414.8398     310.4562   1427.18689     414.8398     310.4562
   1427.17163     417.8203     312.1269   1427.17163     417.8203     312.1269
   1427.15637     420.0881     314.4724   1427.15637     420.0881     314.4724
   1427.14111     421.9217     316.7533   1427.14111     421.9217     316.7533
   1427.12585     424.3167     318.0374   1427.12585     424.3167     318.0374
   1427.11060     426.9319     320.7353   1427.11060     426.9319     320.7353
   1427.09534     429.9543     322.5184   1427.09534     429.9543     322.5184
   1427.08008     432.8315     324.3473   1427.08008     432.8315     324.3473
   1427.06482     433.9066     326.0616   1427.06482     433.9066     326.0616
   1427.04956     437.2214     328.6499   1427.04956     437.2214     328.6499
   1427.03430     439.9015     330.7073   1427.03430     439.9015     330.7073
   1427.01904     442.8176     332.6548   1427.01904     442.8176     332.6548
   1427.00378     445.4486     335.1946   1427.00378     445.4486     335.1946
   1426.98853     446.1961     337.0065   1426.98853     446.1961     337.0065
   1426.97327     450.1290     338.8241   1426.97327     450.1290     338.8241
   1426.95801     452.9419     340.9758   1426.95801     452.9419     340.9758
   1426.94275     455.4530     343.3257   1426.94275     455.4530     343.3257
   1426.92749     458.2997     346.1786   1426.92749     458.2997     346.1786
   1426.91223     460.8257     348.3582   1426.91223     460.8257     348.3582
   1426.89697     463.4321     350.6292   1426.89697     463.4321     350.6292
   1426.88171     465.6791     352.9760   1426.88171     465.6791     352.9760
   1426.86646     468.2382     355.2944   1426.86646     468.2382     355.2944
   1426.85120     471.0837     357.6900   1426.85120     471.0837     357.6900
   1426.83594     474.0653     360.0689   1426.83594     474.0653     360.0689
   1426.82068     476.6700     362.6772   1426.82068     476.6700     362.6772
   1426.80542     478.8910     365.0781   1426.80542     478.8910     365.0781
   1426.79016     481.9846     366.8739   1426.79016     481.9846     366.8739
   1426.77490     485.4783     369.2712   1426.77490     485.4783     369.2712
   1426.75964     487.7115     372.2675   1426.75964     487.7115     372.2675
   1426.74438     490.0548     374.6325   1426.74438     490.0548     374.6325
   1426.72913     492.9577     377.1158   1426.72913     492.9577     377.1158
   1426.71387     495.2729     379.6646   1426.71387     495.2729     379.6646
   1426.69861     497.9701     381.5633   1426.69861     497.9701     381.5633
   1426.68335     500.5471     385.0233   1426.68335     500.5471     385.0233
   1426.66809     503.5225     386.7365   1426.66809     503.5225     386.7365
   1426.65283     506.3447     389.6695   1426.65283     506.3447     389.6695
   1426.63757     508.9921     392.1760   1426.63757     508.9921     392.1760
   1426.62231     511.8169     394.9016   1426.62231     511.8169     394.9016
   1426.60706     514.1929     396.5943   1426.60706     514.1929     396.5943
   1426.59180     517.8204     399.1877   1426.59180     517.8204     399.1877
   1426.57654     519.0364     402.3374   1426.57654     519.0364     402.3374
   1426.56128     522.3221     404.7023   1426.56128     522.3221     404.7023
   1426.54602     525.0878     407.1270   1426.54602     525.0878     407.1270
   1426.53076     527.6382     409.4691   1426.53076     527.6382     409.4691
   1426.51550     530.9935     411.7649   1426.51550     530.9935     411.7649
   1426.50024     534.0027     414.4796   1426.50024     534.0027     414.4796
   1426.48499     535.8949     417.3131   1426.48499     535.8949     417.3131
   1426.46973     539.6401     419.8626   1426.46973     539.6401     419.8626
   1426.45447     541.0516     422.4026   1426.45447     541.0516     422.4026
   1426.43921     544.2904     424.8752   1426.43921     544.2904     424.8752
   1426.42395     546.6043     427.1483   1426.42395     546.6043     427.1483
   1426.40869     549.1293     430.0492   1426.40869     549.1293     430.0492
   1426.39343     552.4531     432.6534   1426.39343     552.4531     432.6534
   1426.37817     554.2893     435.3271   1426.37817     554.2893     435.3271
   1426.36292     556.7491     438.1732   1426.36292     556.7491     438.1732
   1426.34766     559.7375     441.0482   1426.34766     559.7375     441.0482
   1426.33240     562.4330     442.6730   1426.33240     562.4330     442.6730
   1426.31714     564.1961     445.5796   1426.31714     564.1961     445.5796
   1426.30188     566.7481     447.3191   1426.30188     566.7481     447.3191
   1426.28662     569.7557     451.2112   1426.28662     569.7557     451.2112
   1426.27136     572.1492     452.9705   1426.27136     572.1492     452.9705
   1426.25610     574.8088     455.3714   1426.25610     574.8088     455.3714
   1426.24084     577.1329     458.0869   1426.24084     577.1329     458.0869
   1426.22559     578.7368     460.9296   1426.22559     578.7368     460.9296
   1426.21033     581.8810     462.9526   1426.21033     581.8810     462.9526
   1426.19507     583.4890     465.5513   1426.19507     583.4890     465.5513
   1426.17981     586.5396     467.9452   1426.17981     586.5396     467.9452
   1426.16455     588.7565     470.9059   1426.16455     588.7565     470.9059
   1426.14929     591.0566     473.7644   1426.14929     591.0566     473.7644
   1426.13403     593.4944     476.8124   1426.13403     593.4944     476.8124
   1426.11877     594.6061     478.4455   1426.11877     594.6061     478.4455
   1426.10352     597.4493     480.1541   1426.10352     597.4493     480.1541
   1426.08826     600.4866     483.7161   1426.08826     600.4866     483.7161
   1426.07300     601.5808     484.7104   1426.07300     601.5808     484.7104
   1426.05774     604.5961     488.2566   1426.05774     604.5961     488.2566
   1426.04248     606.8439     491.0403   1426.04248     606.8439     491.0403
   1426.02722     608.3656     493.1586   1426.02722     608.3656     493.1586
   1426.01196     610.9814     495.1619   1426.01196     610.9814     495.1619
   1425.99670     612.9617     496.3025   1425.99670     612.9617     496.3025
   1425.98145     614.9813     499.9008   1425.98145     614.9813     499.9008
   1425.96619     616.3003     502.2096   1425.96619     616.3003     502.2096
   1425.95093     618.3739     504.4520   1425.95093     618.3739     504.4520
   1425.93567     620.4891     506.8081   1425.93567     620.4891     506.8081
   1425.92041     623.1828     509.7691   1425.92041     623.1828     509.7691
   1425.90515     624.7591     511.8687   1425.90515     624.7591     511.8687
   1425.88989     625.9005     514.0671   1425.88989     625.9005     514.0671
   1425.87463     627.5925     516.2570   1425.87463     627.5925     516.2570
   1425.85938     630.7062     518.8684   1425.85938     630.7062     518.8684
   1425.84412     632.4665     520.3981   1425.84412     632.4665     520.3981
   1425.82886     633.6358     522.7271   1425.82886     633.6358     522.7271
   1425.81360     635.3568     525.2267   1425.81360     635.3568     525.2267
   1425.79834     637.7413     527.5815   1425.79834     637.7413     527.5815
   1425.78308     638.5634     529.0674   1425.78308     638.5634     529.0674
   1425.76782     640.6766     532.3574   1425.76782     640.6766     532.3574
   1425.75256     641.3386     533.6907   1425.75256     641.3386     533.6907
   1425.73730     642.9190     535.8853   1425.73730     642.9190     535.8853
   1425.72205     645.6482     538.2472   1425.72205     645.6482     538.2472
   1425.70679     646.9653     540.7319   1425.70679     646.9653     540.7319
   1425.69153     649.1873     542.7123   1425.69153     649.1873     542.7123
   1425.67627     650.4591     544.8729   1425.67627     650.4591     544.8729
   1425.66101     651.6193     546.9071   1425.66101     651.6193     546.9071
   1425.64575     653.9708     549.0739   1425.64575     653.9708     549.0739
   1425.63049     654.4271     550.7649   1425.63049     654.4271     550.7649
   1425.61523     655.6508     552.7620   1425.61523     655.6508     552.7620
   1425.59998     657.3597     554.6210   1425.59998     657.3597     554.6210
   1425.58472     657.7061     556.5072   1425.58472     657.7061     556.5072
   1425.56946     660.0955     558.6039   1425.56946     660.0955     558.6039
   1425.55420     662.0565     560.1453   1425.55420     662.0565     560.1453
   1425.53894     661.7121     562.8521   1425.53894     661.7121     562.8521
   1425.52368     664.4251     565.0137   1425.52368     664.4251     565.0137
   1425.50842     664.8311     566.8233   1425.50842     664.8311     566.8233
   1425.49316     666.3995     568.1512   1425.49316     666.3995     568.1512
   1425.47791     668.2953     569.9903   1425.47791     668.2953     569.9903
   1425.46265     668.0364     572.8819   1425.46265     668.0364     572.8819
   1425.44739     670.9176     573.5245   1425.44739     670.9176     573.5245
   1425.43213     671.1967     574.7479   1425.43213     671.1967     574.7479
   1425.41687     672.2830     576.8246   1425.41687     672.2830     576.8246
   1425.40161     671.8936     579.0682   1425.40161     671.8936     579.0682
   1425.38635     674.4769     580.7601   1425.38635     674.4769     580.7601
   1425.37109     675.0262     582.4732   1425.37109     675.0262     582.4732
   1425.35583     675.3169     584.0338   1425.35583     675.3169     584.0338
   1425.34058     676.9892     585.8580   1425.34058     676.9892     585.8580
   1425.32532     678.2493     587.8920   1425.32532     678.2493     587.8920
   1425.31006     678.5511     589.0848   1425.31006     678.5511     589.0848
   1425.29480     679.8867     589.4814   1425.29480     679.8867     589.4814
   1425.27954     679.8594     592.6036   1425.27954     679.8594     592.6036
   1425.26428     680.8915     593.6959   1425.26428     680.8915     593.6959
   1425.24902     681.7917     595.9894   1425.24902     681.7917     595.9894
   1425.23376     683.0580     596.6319   1425.23376     683.0580     596.6319
   1425.21851     682.7989     597.6010   1425.21851     682.7989     597.6010
   1425.20325     683.9404     599.7633   1425.20325     683.9404     599.7633
   1425.18799     684.2094     601.8085   1425.18799     684.2094     601.8085
   1425.17273     685.9846     602.9843   1425.17273     685.9846     602.9843
   1425.15747     686.9404     603.9910   1425.15747     686.9404     603.9910
   1425.14221     687.1323     605.1780   1425.14221     687.1323     605.1780
   1425.12695     687.3236     607.1141   1425.12695     687.3236     607.1141
   1425.11169     688.3582     608.6757   1425.11169     688.3582     608.6757
   1425.09644     689.5823     609.7169   1425.09644     689.5823     609.7169
   1425.08118     689.4572     611.9561   1425.08118     689.4572     611.9561
   1425.06592     690.2300     612.3345   1425.06592     690.2300     612.3345
   1425.05066     690.8521     612.9502   1425.05066     690.8521     612.9502
   1425.03540     691.5416     615.5038   1425.03540     691.5416     615.5038
   1425.02014     691.5077     616.7649   1425.02014     691.5077     616.7649
   1425.00488     690.1016     617.8919   1425.00488     690.1016     617.8919
   1424.98962     691.7784     618.8767   1424.98962     691.7784     618.8767
   1424.97437     692.9062     619.9108   1424.97437     692.9062     619.9108
   1424.95911     692.9802     621.9484   1424.95911     692.9802     621.9484
   1424.94385     694.2390     623.6598   1424.94385     694.2390     623.6598
   1424.92859     694.5133     623.5828   1424.92859     694.5133     623.5828
   1424.91333     694.3560     624.3464   1424.91333     694.3560     624.3464
   1424.89807     694.6818     625.0510   1424.89807     694.6818     625.0510
   1424.88281     694.5312     627.8173   1424.88281     694.5312     627.8173
   1424.86755     694.1648     627.5385   1424.86755     694.1648     627.5385
   1424.85229     695.4204     629.6154   1424.85229     695.4204     629.6154
   1424.83704     696.9749     629.7355   1424.83704     696.9749     629.7355
   1424.82178     696.7649     631.4609   1424.82178     696.7649     631.4609
   1424.80652     696.3691     631.8549   1424.80652     696.3691     631.8549
   1424.79126     696.6440     633.2437   1424.79126     696.6440     633.2437
   1424.77600     696.1008     632.9648   1424.77600     696.1008     632.9648
   1424.76074     697.2012     635.0073   1424.76074     697.2012     635.0073
   1424.74548     696.8646     635.7758   1424.74548     696.8646     635.7758
   1424.73022     697.0581     636.3279   1424.73022     697.0581     636.3279
   1424.71497     697.2197     636.4036   1424.71497     697.2197     636.4036
   1424.69971     697.4579     637.3406   1424.69971     697.4579     637.3406
   1424.68445     698.2651     638.1336   1424.68445     698.2651     638.1336
   1424.66919     698.9425     639.3732   1424.66919     698.9425     639.3732
   1424.65393     697.4730     640.6400   1424.65393     697.4730     640.6400
   1424.63867     698.2673     640.9188   1424.63867     698.2673     640.9188
   1424.62341     698.3118     640.6423   1424.62341     698.3118     640.6423
   1424.60815     698.2706     643.2307   1424.60815     698.2706     643.2307
   1424.59290     696.8795     642.4440   1424.59290     696.8795     642.4440
   1424.57764     698.7578     643.0231   1424.57764     698.7578     643.0231
   1424.56238     698.7297     644.3558   1424.56238     698.7297     644.3558
   1424.54712     698.9698     644.2594   1424.54712     698.9698     644.2594
   1424.53186     697.6873     644.4398   1424.53186     697.6873     644.4398
   1424.51660     698.7705     646.1903   1424.51660     698.7705     646.1903
   1424.50134     698.1287     647.2143   1424.50134     698.1287     647.2143
   1424.48608     698.7876     646.9074   1424.48608     698.7876     646.9074
   1424.47083     698.3577     646.9738   1424.47083     698.3577     646.9738
   1424.45557     697.7886     647.3653   1424.45557     697.7886     647.3653
   1424.44031     697.6476     648.1411   1424.44031     697.6476     648.1411
   1424.42505     698.5324     649.3039   1424.42505     698.5324     649.3039
   1424.40979     697.4223     649.4637   1424.40979     697.4223     649.4637
   1424.39453     697.6454     648.4639   1424.39453     697.6454     648.4639
   1424.37927     698.4626     649.9612   1424.37927     698.4626     649.9612
   1424.36401     697.1637     650.5699   1424.36401     697.1637     650.5699
   1424.34875     697.5311     651.3039   1424.34875     697.5311     651.3039
   1424.33350     697.5747     651.0054   1424.33350     697.5747     651.0054
   1424.31824     697.3914     651.7613   1424.31824     697.3914     651.7613
   1424.30298     698.4304     651.7443   1424.30298     698.4304     651.7443
   1424.28772     697.4918     651.0161   1424.28772     697.4918     651.0161
   1424.27246     696.4327     651.8214   1424.27246     696.4327     651.8214
   1424.25720     696.9701     652.3044   1424.25720     696.9701     652.3044
   1424.24194     696.5693     652.5416   1424.24194     696.5693     652.5416
   1424.22668     697.4761     652.1178   1424.22668     697.4761     652.1178
   1424.21143     696.2407     653.9012   1424.21143     696.2407     653.9012
   1424.19617     695.8716     652.1401   1424.19617     695.8716     652.1401
   1424.18091     697.1761     653.3532   1424.18091     697.1761     653.3532
   1424.16565     695.7101     653.3486   1424.16565     695.7101     653.3486
