#     FILENAME=!Skynet_57528_lach-hhg-101_20349_20908.cyb.fits
#     BASENAME=Skynet_57528_lach-hhg-101_20349_20908
#     SRC_NAME=lach-hhg-101
#     OBSERVER=hhgmadison16_9500
#     DATE_OBS=2016-05-20T15:25:31.680
#        OBSID=20349
#      SCANNUM=20908
#          MJD=57528.6438
#          UTC=55620
#     SCANTYPE=track
#     DATAMODE=HIRES
#     TUNEFREQ=1420.0000
# Actual_FREQ1=1420.0000
# Actual_FREQ2=1420.0000
#    LO1Tuning=6870.000
#     RFFILTER=1355_1435
#        OBSBW=-15.6250
#        NCHAN=1024 
#        FOCUS=37.0709
#           RA=22:05:37.61
#          DEC=55:38:46.90
#      RA(hrs)=22.093800
#     DEC(deg)=55.646400
#    AZIM(deg)=313.508
#    ELEV(deg)=47.850
#     IFattens=10.00, 9.00
#      WARNING=None
#    TCAL_XL1=7.9635
#    TCAL_YR1=9.1340
#    TCAL_XL2=7.9635
#    TCAL_YR2=9.1340
#     TRX_XL1=11.7060
#     TRX_YR1=11.7060
#     TRX_XL2=11.7060
#     TRX_YR2=11.7060
#        TAVE=1.0000
#Freq1(MHz)          XL1          YR1  Freq2(MHz)          XL2          YR2 

   1427.81250     370.3336     282.6346   1427.81250     370.3336     282.6346
   1427.79724     369.9926     283.0608   1427.79724     369.9926     283.0608
   1427.78198     371.0758     283.8630   1427.78198     371.0758     283.8630
   1427.76672     371.6473     284.9695   1427.76672     371.6473     284.9695
   1427.75146     372.9442     285.2465   1427.75146     372.9442     285.2465
   1427.73621     373.8660     286.1044   1427.73621     373.8660     286.1044
   1427.72095     374.0565     287.6000   1427.72095     374.0565     287.6000
   1427.70569     375.0162     288.3889   1427.70569     375.0162     288.3889
   1427.69043     376.3793     288.9828   1427.69043     376.3793     288.9828
   1427.67517     377.2390     290.1607   1427.67517     377.2390     290.1607
   1427.65991     379.1713     291.3452   1427.65991     379.1713     291.3452
   1427.64465     379.6656     292.5241   1427.64465     379.6656     292.5241
   1427.62939     381.5378     294.2213   1427.62939     381.5378     294.2213
   1427.61414     382.5493     294.7498   1427.61414     382.5493     294.7498
   1427.59888     384.0279     296.4200   1427.59888     384.0279     296.4200
   1427.58362     385.9312     297.4991   1427.58362     385.9312     297.4991
   1427.56836     387.2798     298.5139   1427.56836     387.2798     298.5139
   1427.55310     388.1995     299.8650   1427.55310     388.1995     299.8650
   1427.53784     389.5439     300.7992   1427.53784     389.5439     300.7992
   1427.52258     391.9658     302.0247   1427.52258     391.9658     302.0247
   1427.50732     393.4998     303.6544   1427.50732     393.4998     303.6544
   1427.49207     395.3914     305.5066   1427.49207     395.3914     305.5066
   1427.47681     397.1389     306.8563   1427.47681     397.1389     306.8563
   1427.46155     398.9332     308.3807   1427.46155     398.9332     308.3807
   1427.44629     400.9795     309.9225   1427.44629     400.9795     309.9225
   1427.43103     402.5455     311.7969   1427.43103     402.5455     311.7969
   1427.41577     404.7849     312.8151   1427.41577     404.7849     312.8151
   1427.40051     406.4219     314.2520   1427.40051     406.4219     314.2520
   1427.38525     408.2617     316.2890   1427.38525     408.2617     316.2890
   1427.37000     411.4634     317.4189   1427.37000     411.4634     317.4189
   1427.35474     413.3944     319.0995   1427.35474     413.3944     319.0995
   1427.33948     415.5091     321.1520   1427.33948     415.5091     321.1520
   1427.32422     417.8112     322.6432   1427.32422     417.8112     322.6432
   1427.30896     420.0510     324.6001   1427.30896     420.0510     324.6001
   1427.29370     421.6053     326.4938   1427.29370     421.6053     326.4938
   1427.27844     424.3495     328.4244   1427.27844     424.3495     328.4244
   1427.26318     426.4220     330.3907   1427.26318     426.4220     330.3907
   1427.24792     429.0448     331.7165   1427.24792     429.0448     331.7165
   1427.23267     431.6189     334.1709   1427.23267     431.6189     334.1709
   1427.21741     434.0155     335.9827   1427.21741     434.0155     335.9827
   1427.20215     436.4088     337.5719   1427.20215     436.4088     337.5719
   1427.18689     439.2310     339.3934   1427.18689     439.2310     339.3934
   1427.17163     442.1169     340.9645   1427.17163     442.1169     340.9645
   1427.15637     445.3394     344.2661   1427.15637     445.3394     344.2661
   1427.14111     446.2151     345.2502   1427.14111     446.2151     345.2502
   1427.12585     449.9260     347.5464   1427.12585     449.9260     347.5464
   1427.11060     452.9387     349.2838   1427.11060     452.9387     349.2838
   1427.09534     455.3869     351.7935   1427.09534     455.3869     351.7935
   1427.08008     457.3567     353.9325   1427.08008     457.3567     353.9325
   1427.06482     460.7032     355.5765   1427.06482     460.7032     355.5765
   1427.04956     463.9293     358.1041   1427.04956     463.9293     358.1041
   1427.03430     467.2151     359.7875   1427.03430     467.2151     359.7875
   1427.01904     469.2001     361.8776   1427.01904     469.2001     361.8776
   1427.00378     471.9965     364.0734   1427.00378     471.9965     364.0734
   1426.98853     474.9190     366.6599   1426.98853     474.9190     366.6599
   1426.97327     478.2341     368.9671   1426.97327     478.2341     368.9671
   1426.95801     480.7777     370.3738   1426.95801     480.7777     370.3738
   1426.94275     484.3636     372.9970   1426.94275     484.3636     372.9970
   1426.92749     486.8135     374.9221   1426.92749     486.8135     374.9221
   1426.91223     489.8361     377.1093   1426.91223     489.8361     377.1093
   1426.89697     491.8850     379.2163   1426.89697     491.8850     379.2163
   1426.88171     495.2223     381.5617   1426.88171     495.2223     381.5617
   1426.86646     498.5634     384.0774   1426.86646     498.5634     384.0774
   1426.85120     501.4694     386.5032   1426.85120     501.4694     386.5032
   1426.83594     504.7989     387.9200   1426.83594     504.7989     387.9200
   1426.82068     507.2679     390.6202   1426.82068     507.2679     390.6202
   1426.80542     510.5463     392.3901   1426.80542     510.5463     392.3901
   1426.79016     514.1428     394.5668   1426.79016     514.1428     394.5668
   1426.77490     516.9580     397.4675   1426.77490     516.9580     397.4675
   1426.75964     520.3563     399.1077   1426.75964     520.3563     399.1077
   1426.74438     522.5235     401.5753   1426.74438     522.5235     401.5753
   1426.72913     525.3535     404.3036   1426.72913     525.3535     404.3036
   1426.71387     528.8214     405.9984   1426.71387     528.8214     405.9984
   1426.69861     531.8558     408.2802   1426.69861     531.8558     408.2802
   1426.68335     534.8884     410.8822   1426.68335     534.8884     410.8822
   1426.66809     538.5056     413.0058   1426.66809     538.5056     413.0058
   1426.65283     541.7811     415.6221   1426.65283     541.7811     415.6221
   1426.63757     544.3110     417.0941   1426.63757     544.3110     417.0941
   1426.62231     547.1703     420.6520   1426.62231     547.1703     420.6520
   1426.60706     550.3951     421.7259   1426.60706     550.3951     421.7259
   1426.59180     553.5403     424.2594   1426.59180     553.5403     424.2594
   1426.57654     556.5702     425.4927   1426.57654     556.5702     425.4927
   1426.56128     559.6906     428.6320   1426.56128     559.6906     428.6320
   1426.54602     561.7347     429.8326   1426.54602     561.7347     429.8326
   1426.53076     564.6475     432.2820   1426.53076     564.6475     432.2820
   1426.51550     569.0116     435.0636   1426.51550     569.0116     435.0636
   1426.50024     571.8644     437.3181   1426.50024     571.8644     437.3181
   1426.48499     574.4089     439.0839   1426.48499     574.4089     439.0839
   1426.46973     576.9729     441.3539   1426.46973     576.9729     441.3539
   1426.45447     579.7538     443.4137   1426.45447     579.7538     443.4137
   1426.43921     582.7877     445.4068   1426.43921     582.7877     445.4068
   1426.42395     586.7935     447.7611   1426.42395     586.7935     447.7611
   1426.40869     589.5193     449.4384   1426.40869     589.5193     449.4384
   1426.39343     592.8027     451.8108   1426.39343     592.8027     451.8108
   1426.37817     595.0121     454.4369   1426.37817     595.0121     454.4369
   1426.36292     598.5820     456.0287   1426.36292     598.5820     456.0287
   1426.34766     600.1447     458.1331   1426.34766     600.1447     458.1331
   1426.33240     603.6049     459.5397   1426.33240     603.6049     459.5397
   1426.31714     606.1425     462.0562   1426.31714     606.1425     462.0562
   1426.30188     608.6199     463.9387   1426.30188     608.6199     463.9387
   1426.28662     611.0605     466.0605   1426.28662     611.0605     466.0605
   1426.27136     614.6484     467.5715   1426.27136     614.6484     467.5715
   1426.25610     617.2255     469.9665   1426.25610     617.2255     469.9665
   1426.24084     619.9655     472.5652   1426.24084     619.9655     472.5652
   1426.22559     623.2155     474.3632   1426.22559     623.2155     474.3632
   1426.21033     625.5955     476.5025   1426.21033     625.5955     476.5025
   1426.19507     628.2595     479.0536   1426.19507     628.2595     479.0536
   1426.17981     630.8156     479.9096   1426.17981     630.8156     479.9096
   1426.16455     634.0642     483.0168   1426.16455     634.0642     483.0168
   1426.14929     635.4337     483.6417   1426.14929     635.4337     483.6417
   1426.13403     638.6917     485.5505   1426.13403     638.6917     485.5505
   1426.11877     640.2608     487.0387   1426.11877     640.2608     487.0387
   1426.10352     644.2630     489.6060   1426.10352     644.2630     489.6060
   1426.08826     645.2762     491.3825   1426.08826     645.2762     491.3825
   1426.07300     648.4846     493.1688   1426.07300     648.4846     493.1688
   1426.05774     650.9058     494.1033   1426.05774     650.9058     494.1033
   1426.04248     653.3218     495.8565   1426.04248     653.3218     495.8565
   1426.02722     654.6584     498.4681   1426.02722     654.6584     498.4681
   1426.01196     657.5705     500.6950   1426.01196     657.5705     500.6950
   1425.99670     658.8669     502.2603   1425.99670     658.8669     502.2603
   1425.98145     662.2553     503.5760   1425.98145     662.2553     503.5760
   1425.96619     663.8231     505.8992   1425.96619     663.8231     505.8992
   1425.95093     667.1162     507.8237   1425.95093     667.1162     507.8237
   1425.93567     669.2266     508.2369   1425.93567     669.2266     508.2369
   1425.92041     671.4056     509.3310   1425.92041     671.4056     509.3310
   1425.90515     673.2247     511.8910   1425.90515     673.2247     511.8910
   1425.88989     675.3055     512.9807   1425.88989     675.3055     512.9807
   1425.87463     676.9229     515.3401   1425.87463     676.9229     515.3401
   1425.85938     679.5837     517.0980   1425.85938     679.5837     517.0980
   1425.84412     681.4584     518.7860   1425.84412     681.4584     518.7860
   1425.82886     683.2998     520.2852   1425.82886     683.2998     520.2852
   1425.81360     685.2816     521.3886   1425.81360     685.2816     521.3886
   1425.79834     687.3327     522.7698   1425.79834     687.3327     522.7698
   1425.78308     688.1480     524.2669   1425.78308     688.1480     524.2669
   1425.76782     690.0632     525.8657   1425.76782     690.0632     525.8657
   1425.75256     692.3511     527.6865   1425.75256     692.3511     527.6865
   1425.73730     695.6192     529.7457   1425.73730     695.6192     529.7457
   1425.72205     696.1249     530.4019   1425.72205     696.1249     530.4019
   1425.70679     698.2447     531.8177   1425.70679     698.2447     531.8177
   1425.69153     700.0764     534.3008   1425.69153     700.0764     534.3008
   1425.67627     700.3755     535.1882   1425.67627     700.3755     535.1882
   1425.66101     702.7792     536.8011   1425.66101     702.7792     536.8011
   1425.64575     703.6714     537.3929   1425.64575     703.6714     537.3929
   1425.63049     705.0671     539.2054   1425.63049     705.0671     539.2054
   1425.61523     706.5501     540.2469   1425.61523     706.5501     540.2469
   1425.59998     708.0723     542.3030   1425.59998     708.0723     542.3030
   1425.58472     709.0673     543.1476   1425.58472     709.0673     543.1476
   1425.56946     710.8552     544.6632   1425.56946     710.8552     544.6632
   1425.55420     713.7532     546.2628   1425.55420     713.7532     546.2628
   1425.53894     713.2204     547.5605   1425.53894     713.2204     547.5605
   1425.52368     714.7426     548.7240   1425.52368     714.7426     548.7240
   1425.50842     716.5329     549.9655   1425.50842     716.5329     549.9655
   1425.49316     719.3928     550.8067   1425.49316     719.3928     550.8067
   1425.47791     719.0657     552.6782   1425.47791     719.0657     552.6782
   1425.46265     719.1084     553.2544   1425.46265     719.1084     553.2544
   1425.44739     721.5071     554.2476   1425.44739     721.5071     554.2476
   1425.43213     721.9750     556.3431   1425.43213     721.9750     556.3431
   1425.41687     724.1409     557.7080   1425.41687     724.1409     557.7080
   1425.40161     724.3868     558.8378   1425.40161     724.3868     558.8378
   1425.38635     725.3840     559.2605   1425.38635     725.3840     559.2605
   1425.37109     726.3177     561.2255   1425.37109     726.3177     561.2255
   1425.35583     728.3577     561.1454   1425.35583     728.3577     561.1454
   1425.34058     729.2929     562.4833   1425.34058     729.2929     562.4833
   1425.32532     729.8375     564.0040   1425.32532     729.8375     564.0040
   1425.31006     730.7677     564.7519   1425.31006     730.7677     564.7519
   1425.29480     731.0163     566.2848   1425.29480     731.0163     566.2848
   1425.27954     732.1851     567.1298   1425.27954     732.1851     567.1298
   1425.26428     732.1998     568.9885   1425.26428     732.1998     568.9885
   1425.24902     733.6311     568.6557   1425.24902     733.6311     568.6557
   1425.23376     733.6817     570.0130   1425.23376     733.6817     570.0130
   1425.21851     735.8862     571.3861   1425.21851     735.8862     571.3861
   1425.20325     735.2054     572.6426   1425.20325     735.2054     572.6426
   1425.18799     736.5660     573.9954   1425.18799     736.5660     573.9954
   1425.17273     736.6245     574.9260   1425.17273     736.6245     574.9260
   1425.15747     738.6339     574.9528   1425.15747     738.6339     574.9528
   1425.14221     738.5890     576.5636   1425.14221     738.5890     576.5636
   1425.12695     738.2442     578.6114   1425.12695     738.2442     578.6114
   1425.11169     738.8518     577.9691   1425.11169     738.8518     577.9691
   1425.09644     739.9753     578.5016   1425.09644     739.9753     578.5016
   1425.08118     740.6712     580.1667   1425.08118     740.6712     580.1667
   1425.06592     741.9430     580.8519   1425.06592     741.9430     580.8519
   1425.05066     741.6859     582.9169   1425.05066     741.6859     582.9169
   1425.03540     742.5720     582.6765   1425.03540     742.5720     582.6765
   1425.02014     743.3072     583.8725   1425.02014     743.3072     583.8725
   1425.00488     743.1006     584.9813   1425.00488     743.1006     584.9813
   1424.98962     741.9268     586.1254   1424.98962     741.9268     586.1254
   1424.97437     743.4224     585.5667   1424.97437     743.4224     585.5667
   1424.95911     744.1780     587.7734   1424.95911     744.1780     587.7734
   1424.94385     743.5736     588.0854   1424.94385     743.5736     588.0854
   1424.92859     743.8705     588.9191   1424.92859     743.8705     588.9191
   1424.91333     743.4548     590.8734   1424.91333     743.4548     590.8734
   1424.89807     745.6058     590.9940   1424.89807     745.6058     590.9940
   1424.88281     745.7354     591.8677   1424.88281     745.7354     591.8677
   1424.86755     746.2450     593.1475   1424.86755     746.2450     593.1475
   1424.85229     745.6706     592.9113   1424.85229     745.6706     592.9113
   1424.83704     745.9125     593.9818   1424.83704     745.9125     593.9818
   1424.82178     746.2085     594.6359   1424.82178     746.2085     594.6359
   1424.80652     746.0039     594.4008   1424.80652     746.0039     594.4008
   1424.79126     746.2065     596.4733   1424.79126     746.2065     596.4733
   1424.77600     746.3710     597.1722   1424.77600     746.3710     597.1722
   1424.76074     746.0729     597.9153   1424.76074     746.0729     597.9153
   1424.74548     745.2684     598.5436   1424.74548     745.2684     598.5436
   1424.73022     746.7767     599.0173   1424.73022     746.7767     599.0173
   1424.71497     745.8580     601.2798   1424.71497     745.8580     601.2798
   1424.69971     746.3511     601.5915   1424.69971     746.3511     601.5915
   1424.68445     746.3953     602.8041   1424.68445     746.3953     602.8041
   1424.66919     746.2828     601.5039   1424.66919     746.2828     601.5039
   1424.65393     746.8350     603.0466   1424.65393     746.8350     603.0466
   1424.63867     746.6986     603.4663   1424.63867     746.6986     603.4663
   1424.62341     747.4449     603.9832   1424.62341     747.4449     603.9832
   1424.60815     746.6506     604.6367   1424.60815     746.6506     604.6367
   1424.59290     747.4390     605.6382   1424.59290     747.4390     605.6382
   1424.57764     746.2900     605.8292   1424.57764     746.2900     605.8292
   1424.56238     746.4998     607.0048   1424.56238     746.4998     607.0048
   1424.54712     746.7888     607.7968   1424.54712     746.7888     607.7968
   1424.53186     746.3544     607.6473   1424.53186     746.3544     607.6473
   1424.51660     746.4255     608.9850   1424.51660     746.4255     608.9850
   1424.50134     747.6889     609.6721   1424.50134     747.6889     609.6721
   1424.48608     745.6725     609.8608   1424.48608     745.6725     609.8608
   1424.47083     745.9981     610.3506   1424.47083     745.9981     610.3506
   1424.45557     745.4030     611.3821   1424.45557     745.4030     611.3821
   1424.44031     744.7014     610.6479   1424.44031     744.7014     610.6479
   1424.42505     745.3684     611.2292   1424.42505     745.3684     611.2292
   1424.40979     746.0506     613.2902   1424.40979     746.0506     613.2902
   1424.39453     745.4015     612.9893   1424.39453     745.4015     612.9893
   1424.37927     744.5613     615.5582   1424.37927     744.5613     615.5582
   1424.36401     744.9166     614.3376   1424.36401     744.9166     614.3376
   1424.34875     743.8711     615.1434   1424.34875     743.8711     615.1434
   1424.33350     743.9365     615.9573   1424.33350     743.9365     615.9573
   1424.31824     744.9317     616.6049   1424.31824     744.9317     616.6049
   1424.30298     742.4992     617.0314   1424.30298     742.4992     617.0314
   1424.28772     742.6692     616.9442   1424.28772     742.6692     616.9442
   1424.27246     743.6879     617.6912   1424.27246     743.6879     617.6912
   1424.25720     743.4159     618.0275   1424.25720     743.4159     618.0275
   1424.24194     743.2573     619.1449   1424.24194     743.2573     619.1449
   1424.22668     743.1842     619.6687   1424.22668     743.1842     619.6687
   1424.21143     742.0292     620.4080   1424.21143     742.0292     620.4080
   1424.19617     742.1515     620.2266   1424.19617     742.1515     620.2266
   1424.18091     742.6959     620.2778   1424.18091     742.6959     620.2778
   1424.16565     742.0462     621.4628   1424.16565     742.0462     621.4628
