#     FILENAME=!Skynet_57528_lach-cc-215_20624_21044.cyb.fits
#     BASENAME=Skynet_57528_lach-cc-215_20624_21044
#     SRC_NAME=lach-cc-215
#     OBSERVER=ccmadison16_9505
#     DATE_OBS=2016-05-20T20:04:52.680
#        OBSID=20624
#      SCANNUM=21044
#          MJD=57528.8378
#          UTC=72381
#     SCANTYPE=track
#     DATAMODE=HIRES
#     TUNEFREQ=1420.0000
# Actual_FREQ1=1420.0000
# Actual_FREQ2=1420.0000
#    LO1Tuning=6870.000
#     RFFILTER=1355_1435
#        OBSBW=-15.6250
#        NCHAN=1024 
#        FOCUS=37.0270
#           RA=06:55:12.83
#          DEC=-01:50:25.41
#      RA(hrs)=6.920200
#     DEC(deg)=-1.840400
#    AZIM(deg)=173.740
#    ELEV(deg)=49.409
#     IFattens=10.00, 9.00
#      WARNING=None
#    TCAL_XL1=7.9635
#    TCAL_YR1=9.1340
#    TCAL_XL2=7.9635
#    TCAL_YR2=9.1340
#     TRX_XL1=11.7060
#     TRX_YR1=11.7060
#     TRX_XL2=11.7060
#     TRX_YR2=11.7060
#        TAVE=1.0000
#Freq1(MHz)          XL1          YR1  Freq2(MHz)          XL2          YR2 

   1427.81250     352.8850     258.9982   1427.81250     352.8850     258.9982
   1427.79724     354.1191     259.3776   1427.79724     354.1191     259.3776
   1427.78198     354.1875     260.0589   1427.78198     354.1875     260.0589
   1427.76672     354.6078     260.9411   1427.76672     354.6078     260.9411
   1427.75146     355.7297     261.4354   1427.75146     355.7297     261.4354
   1427.73621     356.3575     261.9810   1427.73621     356.3575     261.9810
   1427.72095     357.5829     262.3719   1427.72095     357.5829     262.3719
   1427.70569     358.8797     263.5185   1427.70569     358.8797     263.5185
   1427.69043     358.8890     264.1204   1427.69043     358.8890     264.1204
   1427.67517     359.9693     265.2178   1427.67517     359.9693     265.2178
   1427.65991     361.6705     266.0712   1427.65991     361.6705     266.0712
   1427.64465     362.8678     266.6331   1427.64465     362.8678     266.6331
   1427.62939     364.2425     267.8821   1427.62939     364.2425     267.8821
   1427.61414     364.6280     268.5807   1427.61414     364.6280     268.5807
   1427.59888     366.4007     269.7593   1427.59888     366.4007     269.7593
   1427.58362     367.9959     270.6201   1427.58362     367.9959     270.6201
   1427.56836     368.6827     271.8355   1427.56836     368.6827     271.8355
   1427.55310     370.4395     273.0624   1427.55310     370.4395     273.0624
   1427.53784     372.0489     274.0775   1427.53784     372.0489     274.0775
   1427.52258     373.8661     275.5943   1427.52258     373.8661     275.5943
   1427.50732     374.9097     276.9558   1427.50732     374.9097     276.9558
   1427.49207     375.6189     278.1129   1427.49207     375.6189     278.1129
   1427.47681     377.7161     278.7339   1427.47681     377.7161     278.7339
   1427.46155     379.8146     280.4671   1427.46155     379.8146     280.4671
   1427.44629     381.1965     281.5067   1427.44629     381.1965     281.5067
   1427.43103     382.1953     283.3076   1427.43103     382.1953     283.3076
   1427.41577     385.1606     284.7330   1427.41577     385.1606     284.7330
   1427.40051     386.3195     286.4741   1427.40051     386.3195     286.4741
   1427.38525     387.7279     288.0736   1427.38525     387.7279     288.0736
   1427.37000     390.8527     289.2947   1427.37000     390.8527     289.2947
   1427.35474     392.3384     290.7264   1427.35474     392.3384     290.7264
   1427.33948     394.4326     292.1949   1427.33948     394.4326     292.1949
   1427.32422     396.1926     294.1992   1427.32422     396.1926     294.1992
   1427.30896     398.1431     295.8879   1427.30896     398.1431     295.8879
   1427.29370     400.2383     297.6001   1427.29370     400.2383     297.6001
   1427.27844     402.6967     299.0838   1427.27844     402.6967     299.0838
   1427.26318     404.3853     301.3009   1427.26318     404.3853     301.3009
   1427.24792     407.2301     303.2384   1427.24792     407.2301     303.2384
   1427.23267     408.8798     304.4792   1427.23267     408.8798     304.4792
   1427.21741     411.3112     306.6086   1427.21741     411.3112     306.6086
   1427.20215     412.6167     308.0601   1427.20215     412.6167     308.0601
   1427.18689     415.7378     310.2998   1427.18689     415.7378     310.2998
   1427.17163     418.3318     312.0855   1427.17163     418.3318     312.0855
   1427.15637     420.0985     314.3416   1427.15637     420.0985     314.3416
   1427.14111     421.8950     316.3312   1427.14111     421.8950     316.3312
   1427.12585     425.4959     318.3261   1427.12585     425.4959     318.3261
   1427.11060     427.9034     320.1401   1427.11060     427.9034     320.1401
   1427.09534     429.8015     322.4385   1427.09534     429.8015     322.4385
   1427.08008     431.8180     324.2433   1427.08008     431.8180     324.2433
   1427.06482     435.3340     326.1227   1427.06482     435.3340     326.1227
   1427.04956     436.7127     328.2706   1427.04956     436.7127     328.2706
   1427.03430     439.7540     330.2756   1427.03430     439.7540     330.2756
   1427.01904     442.3016     333.1180   1427.01904     442.3016     333.1180
   1427.00378     444.4234     335.0506   1427.00378     444.4234     335.0506
   1426.98853     447.4487     337.5940   1426.98853     447.4487     337.5940
   1426.97327     450.2456     339.8377   1426.97327     450.2456     339.8377
   1426.95801     452.6732     342.0154   1426.95801     452.6732     342.0154
   1426.94275     455.6894     344.3454   1426.94275     455.6894     344.3454
   1426.92749     458.1040     346.6061   1426.92749     458.1040     346.6061
   1426.91223     460.1808     348.8107   1426.91223     460.1808     348.8107
   1426.89697     463.4625     351.4508   1426.89697     463.4625     351.4508
   1426.88171     465.8692     353.0595   1426.88171     465.8692     353.0595
   1426.86646     468.7906     355.6860   1426.86646     468.7906     355.6860
   1426.85120     471.9784     358.5542   1426.85120     471.9784     358.5542
   1426.83594     473.9825     360.5195   1426.83594     473.9825     360.5195
   1426.82068     477.0325     362.7374   1426.82068     477.0325     362.7374
   1426.80542     479.4763     365.4254   1426.80542     479.4763     365.4254
   1426.79016     481.7942     368.5290   1426.79016     481.7942     368.5290
   1426.77490     484.6100     370.2521   1426.77490     484.6100     370.2521
   1426.75964     487.5293     372.7625   1426.75964     487.5293     372.7625
   1426.74438     489.3053     375.2457   1426.74438     489.3053     375.2457
   1426.72913     493.1667     377.2281   1426.72913     493.1667     377.2281
   1426.71387     496.2688     379.9491   1426.71387     496.2688     379.9491
   1426.69861     498.5084     382.7365   1426.69861     498.5084     382.7365
   1426.68335     500.2856     385.6101   1426.68335     500.2856     385.6101
   1426.66809     504.0539     387.9271   1426.66809     504.0539     387.9271
   1426.65283     506.3079     390.2080   1426.65283     506.3079     390.2080
   1426.63757     509.0759     393.0993   1426.63757     509.0759     393.0993
   1426.62231     513.9205     396.4808   1426.62231     513.9205     396.4808
   1426.60706     514.6863     397.7901   1426.60706     514.6863     397.7901
   1426.59180     517.8548     400.5917   1426.59180     517.8548     400.5917
   1426.57654     520.3784     402.5043   1426.57654     520.3784     402.5043
   1426.56128     523.2878     406.1496   1426.56128     523.2878     406.1496
   1426.54602     525.0674     407.3720   1426.54602     525.0674     407.3720
   1426.53076     528.3790     410.0017   1426.53076     528.3790     410.0017
   1426.51550     530.6876     413.3979   1426.51550     530.6876     413.3979
   1426.50024     533.4649     415.5743   1426.50024     533.4649     415.5743
   1426.48499     535.8047     417.4213   1426.48499     535.8047     417.4213
   1426.46973     539.0663     420.7115   1426.46973     539.0663     420.7115
   1426.45447     542.1222     422.3969   1426.45447     542.1222     422.3969
   1426.43921     543.3169     425.4590   1426.43921     543.3169     425.4590
   1426.42395     547.4532     427.7517   1426.42395     547.4532     427.7517
   1426.40869     549.7144     430.3491   1426.40869     549.7144     430.3491
   1426.39343     551.8204     433.3674   1426.39343     551.8204     433.3674
   1426.37817     555.0632     436.3575   1426.37817     555.0632     436.3575
   1426.36292     557.2776     437.8096   1426.36292     557.2776     437.8096
   1426.34766     560.4601     440.2250   1426.34766     560.4601     440.2250
   1426.33240     562.9850     442.7133   1426.33240     562.9850     442.7133
   1426.31714     564.7579     445.5978   1426.31714     564.7579     445.5978
   1426.30188     568.1301     448.4232   1426.30188     568.1301     448.4232
   1426.28662     569.8765     451.4006   1426.28662     569.8765     451.4006
   1426.27136     573.1702     454.1853   1426.27136     573.1702     454.1853
   1426.25610     574.9972     455.7158   1426.25610     574.9972     455.7158
   1426.24084     576.8787     458.1238   1426.24084     576.8787     458.1238
   1426.22559     580.4902     460.7627   1426.22559     580.4902     460.7627
   1426.21033     581.1640     462.9357   1426.21033     581.1640     462.9357
   1426.19507     584.6299     466.6019   1426.19507     584.6299     466.6019
   1426.17981     586.4096     467.7572   1426.17981     586.4096     467.7572
   1426.16455     588.6552     470.2520   1426.16455     588.6552     470.2520
   1426.14929     591.7004     473.4046   1426.14929     591.7004     473.4046
   1426.13403     593.2918     475.4161   1426.13403     593.2918     475.4161
   1426.11877     595.8916     477.4957   1426.11877     595.8916     477.4957
   1426.10352     597.7254     480.4533   1426.10352     597.7254     480.4533
   1426.08826     600.4913     482.8454   1426.08826     600.4913     482.8454
   1426.07300     602.6191     484.2163   1426.07300     602.6191     484.2163
   1426.05774     604.5678     487.3970   1426.05774     604.5678     487.3970
   1426.04248     607.7034     490.2638   1426.04248     607.7034     490.2638
   1426.02722     609.2607     492.1762   1426.02722     609.2607     492.1762
   1426.01196     610.5955     494.5132   1426.01196     610.5955     494.5132
   1425.99670     613.3369     496.7062   1425.99670     613.3369     496.7062
   1425.98145     614.6716     498.9191   1425.98145     614.6716     498.9191
   1425.96619     617.9233     501.2861   1425.96619     617.9233     501.2861
   1425.95093     618.6110     503.4464   1425.95093     618.6110     503.4464
   1425.93567     620.8350     506.3958   1425.93567     620.8350     506.3958
   1425.92041     622.5050     508.1181   1425.92041     622.5050     508.1181
   1425.90515     625.4125     510.0620   1425.90515     625.4125     510.0620
   1425.88989     627.5078     512.1040   1425.88989     627.5078     512.1040
   1425.87463     628.7025     515.3390   1425.87463     628.7025     515.3390
   1425.85938     631.2657     517.1421   1425.85938     631.2657     517.1421
   1425.84412     632.9169     519.3502   1425.84412     632.9169     519.3502
   1425.82886     633.9484     520.7634   1425.82886     633.9484     520.7634
   1425.81360     637.0922     523.3674   1425.81360     637.0922     523.3674
   1425.79834     638.0826     525.2941   1425.79834     638.0826     525.2941
   1425.78308     639.8400     528.4122   1425.78308     639.8400     528.4122
   1425.76782     641.4402     529.9672   1425.76782     641.4402     529.9672
   1425.75256     643.0039     531.5663   1425.75256     643.0039     531.5663
   1425.73730     645.1017     534.1722   1425.73730     645.1017     534.1722
   1425.72205     646.4304     536.5890   1425.72205     646.4304     536.5890
   1425.70679     647.1523     537.1691   1425.70679     647.1523     537.1691
   1425.69153     649.5514     540.5723   1425.69153     649.5514     540.5723
   1425.67627     650.0751     541.3289   1425.67627     650.0751     541.3289
   1425.66101     652.0746     544.0641   1425.66101     652.0746     544.0641
   1425.64575     654.8800     544.7810   1425.64575     654.8800     544.7810
   1425.63049     656.0264     547.7370   1425.63049     656.0264     547.7370
   1425.61523     656.3925     549.4415   1425.61523     656.3925     549.4415
   1425.59998     658.0937     551.8964   1425.59998     658.0937     551.8964
   1425.58472     659.3506     554.5902   1425.58472     659.3506     554.5902
   1425.56946     660.1155     556.0776   1425.56946     660.1155     556.0776
   1425.55420     661.1757     557.3096   1425.55420     661.1757     557.3096
   1425.53894     663.1256     559.1409   1425.53894     663.1256     559.1409
   1425.52368     664.8621     560.5815   1425.52368     664.8621     560.5815
   1425.50842     665.4366     562.6734   1425.50842     665.4366     562.6734
   1425.49316     667.9010     564.5786   1425.49316     667.9010     564.5786
   1425.47791     667.5705     566.8193   1425.47791     667.5705     566.8193
   1425.46265     668.2481     567.4191   1425.46265     668.2481     567.4191
   1425.44739     669.3703     569.4842   1425.44739     669.3703     569.4842
   1425.43213     672.5272     570.7437   1425.43213     672.5272     570.7437
   1425.41687     672.9504     573.7181   1425.41687     672.9504     573.7181
   1425.40161     673.7322     574.4147   1425.40161     673.7322     574.4147
   1425.38635     675.0341     575.3283   1425.38635     675.0341     575.3283
   1425.37109     675.2400     578.5649   1425.37109     675.2400     578.5649
   1425.35583     676.0244     579.4847   1425.35583     676.0244     579.4847
   1425.34058     677.2519     580.8668   1425.34058     677.2519     580.8668
   1425.32532     678.6295     582.6523   1425.32532     678.6295     582.6523
   1425.31006     679.1652     584.3074   1425.31006     679.1652     584.3074
   1425.29480     680.4727     585.7844   1425.29480     680.4727     585.7844
   1425.27954     680.7880     587.5100   1425.27954     680.7880     587.5100
   1425.26428     681.3884     588.6953   1425.26428     681.3884     588.6953
   1425.24902     682.2065     589.3628   1425.24902     682.2065     589.3628
   1425.23376     683.4304     591.5691   1425.23376     683.4304     591.5691
   1425.21851     683.4934     593.5322   1425.21851     683.4934     593.5322
   1425.20325     684.9498     594.0277   1425.20325     684.9498     594.0277
   1425.18799     686.4355     595.9666   1425.18799     686.4355     595.9666
   1425.17273     686.7998     596.5004   1425.17273     686.7998     596.5004
   1425.15747     686.2328     598.6476   1425.15747     686.2328     598.6476
   1425.14221     687.1787     599.5413   1425.14221     687.1787     599.5413
   1425.12695     687.2806     601.0106   1425.12695     687.2806     601.0106
   1425.11169     688.3640     601.5741   1425.11169     688.3640     601.5741
   1425.09644     687.9246     603.1494   1425.09644     687.9246     603.1494
   1425.08118     688.9697     604.1359   1425.08118     688.9697     604.1359
   1425.06592     689.5988     606.9158   1425.06592     689.5988     606.9158
   1425.05066     689.0062     606.8614   1425.05066     689.0062     606.8614
   1425.03540     691.0168     608.7014   1425.03540     691.0168     608.7014
   1425.02014     690.7794     609.5259   1425.02014     690.7794     609.5259
   1425.00488     691.0660     611.4671   1425.00488     691.0660     611.4671
   1424.98962     693.0027     612.8967   1424.98962     693.0027     612.8967
   1424.97437     691.6345     613.1700   1424.97437     691.6345     613.1700
   1424.95911     692.0349     614.0053   1424.95911     692.0349     614.0053
   1424.94385     694.5070     614.7379   1424.94385     694.5070     614.7379
   1424.92859     692.9525     615.9356   1424.92859     692.9525     615.9356
   1424.91333     692.9816     616.1271   1424.91333     692.9816     616.1271
   1424.89807     693.7549     618.4262   1424.89807     693.7549     618.4262
   1424.88281     693.8976     618.2956   1424.88281     693.8976     618.2956
   1424.86755     693.5432     618.9547   1424.86755     693.5432     618.9547
   1424.85229     694.5488     620.3428   1424.85229     694.5488     620.3428
   1424.83704     695.1981     622.2655   1424.83704     695.1981     622.2655
   1424.82178     695.2535     623.2252   1424.82178     695.2535     623.2252
   1424.80652     696.5387     623.0286   1424.80652     696.5387     623.0286
   1424.79126     694.4597     624.2555   1424.79126     694.4597     624.2555
   1424.77600     695.7179     624.6402   1424.77600     695.7179     624.6402
   1424.76074     696.0454     625.2466   1424.76074     696.0454     625.2466
   1424.74548     695.2579     625.7325   1424.74548     695.2579     625.7325
   1424.73022     695.5482     626.8578   1424.73022     695.5482     626.8578
   1424.71497     696.3389     628.8417   1424.71497     696.3389     628.8417
   1424.69971     696.2418     628.2582   1424.69971     696.2418     628.2582
   1424.68445     697.3490     629.2758   1424.68445     697.3490     629.2758
   1424.66919     697.1366     629.4210   1424.66919     697.1366     629.4210
   1424.65393     697.5065     631.1523   1424.65393     697.5065     631.1523
   1424.63867     696.3386     631.0731   1424.63867     696.3386     631.0731
   1424.62341     697.0909     631.3901   1424.62341     697.0909     631.3901
   1424.60815     696.5565     631.8877   1424.60815     696.5565     631.8877
   1424.59290     696.3481     633.2810   1424.59290     696.3481     633.2810
   1424.57764     696.8181     633.3417   1424.57764     696.8181     633.3417
   1424.56238     696.8105     634.4879   1424.56238     696.8105     634.4879
   1424.54712     696.7971     633.9812   1424.54712     696.7971     633.9812
   1424.53186     696.7722     634.4984   1424.53186     696.7722     634.4984
   1424.51660     696.7295     635.2084   1424.51660     696.7295     635.2084
   1424.50134     696.2350     635.9289   1424.50134     696.2350     635.9289
   1424.48608     697.0707     636.1841   1424.48608     697.0707     636.1841
   1424.47083     696.4291     636.6885   1424.47083     696.4291     636.6885
   1424.45557     696.7022     637.4675   1424.45557     696.7022     637.4675
   1424.44031     697.3872     637.2086   1424.44031     697.3872     637.2086
   1424.42505     695.8560     637.8875   1424.42505     695.8560     637.8875
   1424.40979     696.1921     639.4753   1424.40979     696.1921     639.4753
   1424.39453     695.5032     638.9788   1424.39453     695.5032     638.9788
   1424.37927     696.6845     638.7051   1424.37927     696.6845     638.7051
   1424.36401     697.1314     639.5489   1424.36401     697.1314     639.5489
   1424.34875     696.5323     639.0870   1424.34875     696.5323     639.0870
   1424.33350     695.7594     638.5068   1424.33350     695.7594     638.5068
   1424.31824     696.6935     640.1210   1424.31824     696.6935     640.1210
   1424.30298     695.0053     639.6652   1424.30298     695.0053     639.6652
   1424.28772     694.3962     639.5684   1424.28772     694.3962     639.5684
   1424.27246     694.7234     640.9897   1424.27246     694.7234     640.9897
   1424.25720     695.0948     640.4023   1424.25720     695.0948     640.4023
   1424.24194     693.2302     641.0185   1424.24194     693.2302     641.0185
   1424.22668     694.2020     641.3106   1424.22668     694.2020     641.3106
   1424.21143     694.7331     642.0297   1424.21143     694.7331     642.0297
   1424.19617     693.9474     641.6018   1424.19617     693.9474     641.6018
   1424.18091     694.3004     640.9101   1424.18091     694.3004     640.9101
   1424.16565     694.4401     641.3814   1424.16565     694.4401     641.3814
