#     FILENAME=!Skynet_57528_lach-cc-234_20650_21022.cyb.fits
#     BASENAME=Skynet_57528_lach-cc-234_20650_21022
#     SRC_NAME=lach-cc-234
#     OBSERVER=ccmadison16_9505
#     DATE_OBS=2016-05-20T19:19:55.250
#        OBSID=20650
#      SCANNUM=21022
#          MJD=57528.8066
#          UTC=69685
#     SCANTYPE=track
#     DATAMODE=HIRES
#     TUNEFREQ=1420.0000
# Actual_FREQ1=1420.0000
# Actual_FREQ2=1420.0000
#    LO1Tuning=6870.000
#     RFFILTER=1355_1435
#        OBSBW=-15.6250
#        NCHAN=1024 
#        FOCUS=37.0709
#           RA=07:31:20.64
#          DEC=-18:39:26.42
#      RA(hrs)=7.522400
#     DEC(deg)=-18.657300
#    AZIM(deg)=153.461
#    ELEV(deg)=28.435
#     IFattens=10.00, 9.00
#      WARNING=None
#    TCAL_XL1=7.9635
#    TCAL_YR1=9.1340
#    TCAL_XL2=7.9635
#    TCAL_YR2=9.1340
#     TRX_XL1=11.7060
#     TRX_YR1=11.7060
#     TRX_XL2=11.7060
#     TRX_YR2=11.7060
#        TAVE=1.0000
#Freq1(MHz)          XL1          YR1  Freq2(MHz)          XL2          YR2 

   1427.81250     369.4754     289.9879   1427.81250     369.4754     289.9879
   1427.79724     369.8041     290.0074   1427.79724     369.8041     290.0074
   1427.78198     371.1132     290.9176   1427.78198     371.1132     290.9176
   1427.76672     371.8341     291.2535   1427.76672     371.8341     291.2535
   1427.75146     372.9258     292.2950   1427.75146     372.9258     292.2950
   1427.73621     373.5169     292.8404   1427.73621     373.5169     292.8404
   1427.72095     373.6570     293.5327   1427.72095     373.6570     293.5327
   1427.70569     374.9389     294.5116   1427.70569     374.9389     294.5116
   1427.69043     377.0555     294.8089   1427.69043     377.0555     294.8089
   1427.67517     376.9439     295.8752   1427.67517     376.9439     295.8752
   1427.65991     378.9988     296.5046   1427.65991     378.9988     296.5046
   1427.64465     379.6618     297.5112   1427.64465     379.6618     297.5112
   1427.62939     381.0918     298.6330   1427.62939     381.0918     298.6330
   1427.61414     382.2932     299.3945   1427.61414     382.2932     299.3945
   1427.59888     383.7838     300.2168   1427.59888     383.7838     300.2168
   1427.58362     385.2451     301.6951   1427.58362     385.2451     301.6951
   1427.56836     386.6432     302.4174   1427.56836     386.6432     302.4174
   1427.55310     387.8961     303.6455   1427.55310     387.8961     303.6455
   1427.53784     390.1150     304.9868   1427.53784     390.1150     304.9868
   1427.52258     391.8860     306.0863   1427.52258     391.8860     306.0863
   1427.50732     392.9836     307.6407   1427.50732     392.9836     307.6407
   1427.49207     394.5740     308.2571   1427.49207     394.5740     308.2571
   1427.47681     396.3452     309.8686   1427.47681     396.3452     309.8686
   1427.46155     399.7537     311.4329   1427.46155     399.7537     311.4329
   1427.44629     399.7234     312.7608   1427.44629     399.7234     312.7608
   1427.43103     402.1508     314.3402   1427.43103     402.1508     314.3402
   1427.41577     403.7015     315.6443   1427.41577     403.7015     315.6443
   1427.40051     405.9363     317.1230   1427.40051     405.9363     317.1230
   1427.38525     407.4574     318.7814   1427.38525     407.4574     318.7814
   1427.37000     409.5461     320.2719   1427.37000     409.5461     320.2719
   1427.35474     412.1946     321.4357   1427.35474     412.1946     321.4357
   1427.33948     414.4341     323.2187   1427.33948     414.4341     323.2187
   1427.32422     415.8396     325.0530   1427.32422     415.8396     325.0530
   1427.30896     418.7863     326.9700   1427.30896     418.7863     326.9700
   1427.29370     420.5171     328.4150   1427.29370     420.5171     328.4150
   1427.27844     422.5320     329.8192   1427.27844     422.5320     329.8192
   1427.26318     424.9883     331.9461   1427.26318     424.9883     331.9461
   1427.24792     427.5397     334.3584   1427.24792     427.5397     334.3584
   1427.23267     430.1334     336.1655   1427.23267     430.1334     336.1655
   1427.21741     431.8574     337.5525   1427.21741     431.8574     337.5525
   1427.20215     434.9164     339.8010   1427.20215     434.9164     339.8010
   1427.18689     437.4100     341.3026   1427.18689     437.4100     341.3026
   1427.17163     440.0280     343.5895   1427.17163     440.0280     343.5895
   1427.15637     442.2353     345.6357   1427.15637     442.2353     345.6357
   1427.14111     445.1695     347.0217   1427.14111     445.1695     347.0217
   1427.12585     447.0456     349.5085   1427.12585     447.0456     349.5085
   1427.11060     450.3080     351.7108   1427.11060     450.3080     351.7108
   1427.09534     452.8828     353.7508   1427.09534     452.8828     353.7508
   1427.08008     455.1803     355.6511   1427.08008     455.1803     355.6511
   1427.06482     458.1768     357.7476   1427.06482     458.1768     357.7476
   1427.04956     460.7757     360.3871   1427.04956     460.7757     360.3871
   1427.03430     463.5532     362.8184   1427.03430     463.5532     362.8184
   1427.01904     465.7612     364.9506   1427.01904     465.7612     364.9506
   1427.00378     468.5581     367.1445   1427.00378     468.5581     367.1445
   1426.98853     471.6884     368.7244   1426.98853     471.6884     368.7244
   1426.97327     474.4812     371.3313   1426.97327     474.4812     371.3313
   1426.95801     477.9634     373.6296   1426.95801     477.9634     373.6296
   1426.94275     480.3193     375.1893   1426.94275     480.3193     375.1893
   1426.92749     482.9834     377.9182   1426.92749     482.9834     377.9182
   1426.91223     485.6987     380.3371   1426.91223     485.6987     380.3371
   1426.89697     488.4896     382.5881   1426.89697     488.4896     382.5881
   1426.88171     491.5267     385.3430   1426.88171     491.5267     385.3430
   1426.86646     495.0847     387.5226   1426.86646     495.0847     387.5226
   1426.85120     496.8080     389.4866   1426.85120     496.8080     389.4866
   1426.83594     500.8470     392.1924   1426.83594     500.8470     392.1924
   1426.82068     503.1923     395.3267   1426.82068     503.1923     395.3267
   1426.80542     506.2437     396.9037   1426.80542     506.2437     396.9037
   1426.79016     508.5146     399.5974   1426.79016     508.5146     399.5974
   1426.77490     512.4493     401.8507   1426.77490     512.4493     401.8507
   1426.75964     514.8669     404.2117   1426.75964     514.8669     404.2117
   1426.74438     518.2220     406.7526   1426.74438     518.2220     406.7526
   1426.72913     520.5951     409.8586   1426.72913     520.5951     409.8586
   1426.71387     524.2184     411.7800   1426.71387     524.2184     411.7800
   1426.69861     527.0815     414.4185   1426.69861     527.0815     414.4185
   1426.68335     529.9193     417.0949   1426.68335     529.9193     417.0949
   1426.66809     533.4423     419.4880   1426.66809     533.4423     419.4880
   1426.65283     535.4703     422.9413   1426.65283     535.4703     422.9413
   1426.63757     539.9160     424.7956   1426.63757     539.9160     424.7956
   1426.62231     545.2498     430.9349   1426.62231     545.2498     430.9349
   1426.60706     544.5829     429.7756   1426.60706     544.5829     429.7756
   1426.59180     548.8494     432.8129   1426.59180     548.8494     432.8129
   1426.57654     550.2631     434.5729   1426.57654     550.2631     434.5729
   1426.56128     553.6280     437.8238   1426.56128     553.6280     437.8238
   1426.54602     557.2893     439.3150   1426.54602     557.2893     439.3150
   1426.53076     560.0267     442.2904   1426.53076     560.0267     442.2904
   1426.51550     561.9862     445.1430   1426.51550     561.9862     445.1430
   1426.50024     565.1816     446.9763   1426.50024     565.1816     446.9763
   1426.48499     568.5235     449.9305   1426.48499     568.5235     449.9305
   1426.46973     571.0098     452.0584   1426.46973     571.0098     452.0584
   1426.45447     574.4588     454.8853   1426.45447     574.4588     454.8853
   1426.43921     577.3174     456.5106   1426.43921     577.3174     456.5106
   1426.42395     580.7574     459.6598   1426.42395     580.7574     459.6598
   1426.40869     582.6611     462.2438   1426.40869     582.6611     462.2438
   1426.39343     585.0848     465.2805   1426.39343     585.0848     465.2805
   1426.37817     588.5359     468.1035   1426.37817     588.5359     468.1035
   1426.36292     590.7433     469.8295   1426.36292     590.7433     469.8295
   1426.34766     594.6511     472.8884   1426.34766     594.6511     472.8884
   1426.33240     596.4368     475.1776   1426.33240     596.4368     475.1776
   1426.31714     599.5583     477.3725   1426.31714     599.5583     477.3725
   1426.30188     602.1028     480.6461   1426.30188     602.1028     480.6461
   1426.28662     606.1259     483.3123   1426.28662     606.1259     483.3123
   1426.27136     607.2793     484.7267   1426.27136     607.2793     484.7267
   1426.25610     610.2940     488.7373   1426.25610     610.2940     488.7373
   1426.24084     612.8569     490.4301   1426.24084     612.8569     490.4301
   1426.22559     615.9157     492.4631   1426.22559     615.9157     492.4631
   1426.21033     619.1813     495.5674   1426.21033     619.1813     495.5674
   1426.19507     620.6943     497.1538   1426.19507     620.6943     497.1538
   1426.17981     622.9586     500.3936   1426.17981     622.9586     500.3936
   1426.16455     626.6202     502.6618   1426.16455     626.6202     502.6618
   1426.14929     629.0952     506.1956   1426.14929     629.0952     506.1956
   1426.13403     631.2700     507.3098   1426.13403     631.2700     507.3098
   1426.11877     634.4182     509.9505   1426.11877     634.4182     509.9505
   1426.10352     636.9121     512.0118   1426.10352     636.9121     512.0118
   1426.08826     637.7153     514.6404   1426.08826     637.7153     514.6404
   1426.07300     640.9100     517.6133   1426.07300     640.9100     517.6133
   1426.05774     643.3681     519.4238   1426.05774     643.3681     519.4238
   1426.04248     646.3376     522.2432   1426.04248     646.3376     522.2432
   1426.02722     647.9753     524.2513   1426.02722     647.9753     524.2513
   1426.01196     651.5092     526.8572   1426.01196     651.5092     526.8572
   1425.99670     653.6803     529.5368   1425.99670     653.6803     529.5368
   1425.98145     655.0985     531.5771   1425.98145     655.0985     531.5771
   1425.96619     658.1128     533.9791   1425.96619     658.1128     533.9791
   1425.95093     659.7819     535.3210   1425.95093     659.7819     535.3210
   1425.93567     660.7429     537.4050   1425.93567     660.7429     537.4050
   1425.92041     664.1769     540.5981   1425.92041     664.1769     540.5981
   1425.90515     666.1599     542.6535   1425.90515     666.1599     542.6535
   1425.88989     668.6157     544.3591   1425.88989     668.6157     544.3591
   1425.87463     670.3563     546.8702   1425.87463     670.3563     546.8702
   1425.85938     672.1772     549.6103   1425.85938     672.1772     549.6103
   1425.84412     674.0732     551.2903   1425.84412     674.0732     551.2903
   1425.82886     676.0271     553.9333   1425.82886     676.0271     553.9333
   1425.81360     677.0010     556.5073   1425.81360     677.0010     556.5073
   1425.79834     680.1217     558.7440   1425.79834     680.1217     558.7440
   1425.78308     682.0475     560.7905   1425.78308     682.0475     560.7905
   1425.76782     684.9144     563.2830   1425.76782     684.9144     563.2830
   1425.75256     684.9865     564.6669   1425.75256     684.9865     564.6669
   1425.73730     686.2971     566.1813   1425.73730     686.2971     566.1813
   1425.72205     689.1578     568.0728   1425.72205     689.1578     568.0728
   1425.70679     691.1639     571.2642   1425.70679     691.1639     571.2642
   1425.69153     692.6797     572.5977   1425.69153     692.6797     572.5977
   1425.67627     694.4742     574.7047   1425.67627     694.4742     574.7047
   1425.66101     696.0563     576.9184   1425.66101     696.0563     576.9184
   1425.64575     697.6003     578.1082   1425.64575     697.6003     578.1082
   1425.63049     698.2852     580.7576   1425.63049     698.2852     580.7576
   1425.61523     701.0332     583.4395   1425.61523     701.0332     583.4395
   1425.59998     701.6912     585.8148   1425.59998     701.6912     585.8148
   1425.58472     703.0819     587.5088   1425.58472     703.0819     587.5088
   1425.56946     705.8466     588.8742   1425.56946     705.8466     588.8742
   1425.55420     707.2983     590.3950   1425.55420     707.2983     590.3950
   1425.53894     708.5911     592.5936   1425.53894     708.5911     592.5936
   1425.52368     709.4587     594.4994   1425.52368     709.4587     594.4994
   1425.50842     711.2102     595.7307   1425.50842     711.2102     595.7307
   1425.49316     711.9075     599.7606   1425.49316     711.9075     599.7606
   1425.47791     712.5906     599.8851   1425.47791     712.5906     599.8851
   1425.46265     714.2094     601.7959   1425.46265     714.2094     601.7959
   1425.44739     715.9742     604.8462   1425.44739     715.9742     604.8462
   1425.43213     717.1207     606.7921   1425.43213     717.1207     606.7921
   1425.41687     719.3267     607.8340   1425.41687     719.3267     607.8340
   1425.40161     720.0941     610.4325   1425.40161     720.0941     610.4325
   1425.38635     720.6976     610.8499   1425.38635     720.6976     610.8499
   1425.37109     721.7684     612.5555   1425.37109     721.7684     612.5555
   1425.35583     723.3598     614.4500   1425.35583     723.3598     614.4500
   1425.34058     724.6302     616.9485   1425.34058     724.6302     616.9485
   1425.32532     725.0517     618.6259   1425.32532     725.0517     618.6259
   1425.31006     726.8140     620.2496   1425.31006     726.8140     620.2496
   1425.29480     726.7917     623.0239   1425.29480     726.7917     623.0239
   1425.27954     727.5813     623.3874   1425.27954     727.5813     623.3874
   1425.26428     728.5781     625.4949   1425.26428     728.5781     625.4949
   1425.24902     728.7758     626.9306   1425.24902     728.7758     626.9306
   1425.23376     730.4669     628.1426   1425.23376     730.4669     628.1426
   1425.21851     731.3459     629.8539   1425.21851     731.3459     629.8539
   1425.20325     730.9766     630.4507   1425.20325     730.9766     630.4507
   1425.18799     732.8507     632.7737   1425.18799     732.8507     632.7737
   1425.17273     734.7017     633.8658   1425.17273     734.7017     633.8658
   1425.15747     733.6497     635.7465   1425.15747     733.6497     635.7465
   1425.14221     733.7242     637.2950   1425.14221     733.7242     637.2950
   1425.12695     735.1113     639.1354   1425.12695     735.1113     639.1354
   1425.11169     737.3159     639.8054   1425.11169     737.3159     639.8054
   1425.09644     736.8000     641.6550   1425.09644     736.8000     641.6550
   1425.08118     738.8906     643.6085   1425.08118     738.8906     643.6085
   1425.06592     737.9320     644.7445   1425.06592     737.9320     644.7445
   1425.05066     738.2598     645.4092   1425.05066     738.2598     645.4092
   1425.03540     739.6022     648.1927   1425.03540     739.6022     648.1927
   1425.02014     740.4871     647.0917   1425.02014     740.4871     647.0917
   1425.00488     740.3148     650.2391   1425.00488     740.3148     650.2391
   1424.98962     741.1099     650.7394   1424.98962     741.1099     650.7394
   1424.97437     740.9649     652.2470   1424.97437     740.9649     652.2470
   1424.95911     741.6522     653.9772   1424.95911     741.6522     653.9772
   1424.94385     742.3427     655.0433   1424.94385     742.3427     655.0433
   1424.92859     742.0464     654.9149   1424.92859     742.0464     654.9149
   1424.91333     743.3646     656.7496   1424.91333     743.3646     656.7496
   1424.89807     743.3682     657.4136   1424.89807     743.3682     657.4136
   1424.88281     744.9468     659.3493   1424.88281     744.9468     659.3493
   1424.86755     745.0247     659.6831   1424.86755     745.0247     659.6831
   1424.85229     744.5608     662.9567   1424.85229     744.5608     662.9567
   1424.83704     743.7534     662.9293   1424.83704     743.7534     662.9293
   1424.82178     746.3972     664.3755   1424.82178     746.3972     664.3755
   1424.80652     745.0654     665.1094   1424.80652     745.0654     665.1094
   1424.79126     747.2913     666.5004   1424.79126     747.2913     666.5004
   1424.77600     746.0280     667.6277   1424.77600     746.0280     667.6277
   1424.76074     746.7046     669.2836   1424.76074     746.7046     669.2836
   1424.74548     746.4975     669.0690   1424.74548     746.4975     669.0690
   1424.73022     745.9998     669.4799   1424.73022     745.9998     669.4799
   1424.71497     746.7017     671.0821   1424.71497     746.7017     671.0821
   1424.69971     745.4432     671.9069   1424.69971     745.4432     671.9069
   1424.68445     747.7233     673.5846   1424.68445     747.7233     673.5846
   1424.66919     747.4797     674.6064   1424.66919     747.4797     674.6064
   1424.65393     746.3516     675.6805   1424.65393     746.3516     675.6805
   1424.63867     746.8163     675.8124   1424.63867     746.8163     675.8124
   1424.62341     747.6143     677.4484   1424.62341     747.6143     677.4484
   1424.60815     747.1365     678.4941   1424.60815     747.1365     678.4941
   1424.59290     746.6161     678.8013   1424.59290     746.6161     678.8013
   1424.57764     748.7047     679.3220   1424.57764     748.7047     679.3220
   1424.56238     748.2806     680.6001   1424.56238     748.2806     680.6001
   1424.54712     748.0543     680.0677   1424.54712     748.0543     680.0677
   1424.53186     748.1829     681.2056   1424.53186     748.1829     681.2056
   1424.51660     747.3391     681.7604   1424.51660     747.3391     681.7604
   1424.50134     747.0319     682.9778   1424.50134     747.0319     682.9778
   1424.48608     746.6887     684.4046   1424.48608     746.6887     684.4046
   1424.47083     748.1182     684.1426   1424.47083     748.1182     684.1426
   1424.45557     747.4981     684.2826   1424.45557     747.4981     684.2826
   1424.44031     747.8592     685.7637   1424.44031     747.8592     685.7637
   1424.42505     747.9248     686.1448   1424.42505     747.9248     686.1448
   1424.40979     748.5657     687.7790   1424.40979     748.5657     687.7790
   1424.39453     747.9605     688.5027   1424.39453     747.9605     688.5027
   1424.37927     748.5872     688.2002   1424.37927     748.5872     688.2002
   1424.36401     747.3561     688.9261   1424.36401     747.3561     688.9261
   1424.34875     746.6824     687.7641   1424.34875     746.6824     687.7641
   1424.33350     747.2667     690.5613   1424.33350     747.2667     690.5613
   1424.31824     747.1434     690.4835   1424.31824     747.1434     690.4835
   1424.30298     747.1685     691.0934   1424.30298     747.1685     691.0934
   1424.28772     747.8423     691.9970   1424.28772     747.8423     691.9970
   1424.27246     746.3160     692.7334   1424.27246     746.3160     692.7334
   1424.25720     747.1313     691.0354   1424.25720     747.1313     691.0354
   1424.24194     745.1902     691.7519   1424.24194     745.1902     691.7519
   1424.22668     744.9871     692.2968   1424.22668     744.9871     692.2968
   1424.21143     746.9277     693.5317   1424.21143     746.9277     693.5317
   1424.19617     745.0409     693.8732   1424.19617     745.0409     693.8732
   1424.18091     745.8800     693.5105   1424.18091     745.8800     693.5105
   1424.16565     744.9636     694.3787   1424.16565     744.9636     694.3787
