#     FILENAME=!Skynet_57533_lach-hhg-192-2_20790_21211.cyb.fits
#     BASENAME=Skynet_57533_lach-hhg-192-2_20790_21211
#     SRC_NAME=lach-hhg-192-2
#     OBSERVER=ccmadison16_9505
#     DATE_OBS=2016-05-25T18:39:52.180
#        OBSID=20790
#      SCANNUM=21211
#          MJD=57533.7787
#          UTC=67282
#     SCANTYPE=track
#     DATAMODE=HIRES
#     TUNEFREQ=1420.0000
# Actual_FREQ1=1420.0000
# Actual_FREQ2=1420.0000
#    LO1Tuning=6870.000
#     RFFILTER=1355_1435
#        OBSBW=-15.6250
#        NCHAN=1024 
#        FOCUS=37.0709
#           RA=06:11:50.09
#          DEC=18:32:23.54
#      RA(hrs)=6.197200
#     DEC(deg)=18.539900
#    AZIM(deg)=154.808
#    ELEV(deg)=68.399
#     IFattens=10.00, 9.00
#      WARNING=None
#    TCAL_XL1=7.9635
#    TCAL_YR1=9.1340
#    TCAL_XL2=7.9635
#    TCAL_YR2=9.1340
#     TRX_XL1=11.7060
#     TRX_YR1=11.7060
#     TRX_XL2=11.7060
#     TRX_YR2=11.7060
#        TAVE=1.0000
#Freq1(MHz)          XL1          YR1  Freq2(MHz)          XL2          YR2 

   1427.81250     368.9533     267.8054   1427.81250     368.9533     267.8054
   1427.79724     369.5623     268.4236   1427.79724     369.5623     268.4236
   1427.78198     369.1610     269.3945   1427.78198     369.1610     269.3945
   1427.76672     369.7295     270.3257   1427.76672     369.7295     270.3257
   1427.75146     370.6337     271.8473   1427.75146     370.6337     271.8473
   1427.73621     371.7069     272.4312   1427.73621     371.7069     272.4312
   1427.72095     372.3179     273.1395   1427.72095     372.3179     273.1395
   1427.70569     373.4901     274.6359   1427.70569     373.4901     274.6359
   1427.69043     374.3788     275.4058   1427.69043     374.3788     275.4058
   1427.67517     375.0257     276.7482   1427.67517     375.0257     276.7482
   1427.65991     376.5464     277.8503   1427.65991     376.5464     277.8503
   1427.64465     377.7773     278.7672   1427.64465     377.7773     278.7672
   1427.62939     378.3872     279.9684   1427.62939     378.3872     279.9684
   1427.61414     379.7894     280.9361   1427.61414     379.7894     280.9361
   1427.59888     380.5634     283.3146   1427.59888     380.5634     283.3146
   1427.58362     381.7623     284.1616   1427.58362     381.7623     284.1616
   1427.56836     383.8517     284.8381   1427.56836     383.8517     284.8381
   1427.55310     385.4396     286.8525   1427.55310     385.4396     286.8525
   1427.53784     386.3358     287.9998   1427.53784     386.3358     287.9998
   1427.52258     387.8802     289.4546   1427.52258     387.8802     289.4546
   1427.50732     390.1736     290.7260   1427.50732     390.1736     290.7260
   1427.49207     391.4911     292.5446   1427.49207     391.4911     292.5446
   1427.47681     393.5100     293.9151   1427.47681     393.5100     293.9151
   1427.46155     394.9333     295.7603   1427.46155     394.9333     295.7603
   1427.44629     396.6342     296.5881   1427.44629     396.6342     296.5881
   1427.43103     398.8332     298.7153   1427.43103     398.8332     298.7153
   1427.41577     400.4127     300.6425   1427.41577     400.4127     300.6425
   1427.40051     402.2070     300.9257   1427.40051     402.2070     300.9257
   1427.38525     404.4148     303.1479   1427.38525     404.4148     303.1479
   1427.37000     406.0030     305.1964   1427.37000     406.0030     305.1964
   1427.35474     408.3955     306.6565   1427.35474     408.3955     306.6565
   1427.33948     410.7694     308.0211   1427.33948     410.7694     308.0211
   1427.32422     411.8777     309.6163   1427.32422     411.8777     309.6163
   1427.30896     415.3284     311.2437   1427.30896     415.3284     311.2437
   1427.29370     417.1349     313.5540   1427.29370     417.1349     313.5540
   1427.27844     419.5698     315.4995   1427.27844     419.5698     315.4995
   1427.26318     421.7180     316.7627   1427.26318     421.7180     316.7627
   1427.24792     424.5999     318.6779   1427.24792     424.5999     318.6779
   1427.23267     426.4180     320.4254   1427.23267     426.4180     320.4254
   1427.21741     429.5042     322.0377   1427.21741     429.5042     322.0377
   1427.20215     432.0326     323.5486   1427.20215     432.0326     323.5486
   1427.18689     433.7163     325.7596   1427.18689     433.7163     325.7596
   1427.17163     437.2933     327.4817   1427.17163     437.2933     327.4817
   1427.15637     439.9767     328.8125   1427.15637     439.9767     328.8125
   1427.14111     441.4980     330.7814   1427.14111     441.4980     330.7814
   1427.12585     444.8795     333.2480   1427.12585     444.8795     333.2480
   1427.11060     448.4162     334.6468   1427.11060     448.4162     334.6468
   1427.09534     450.5844     337.1918   1427.09534     450.5844     337.1918
   1427.08008     453.9158     338.3619   1427.08008     453.9158     338.3619
   1427.06482     455.7673     340.8144   1427.06482     455.7673     340.8144
   1427.04956     459.1064     342.0809   1427.04956     459.1064     342.0809
   1427.03430     462.3838     344.9481   1427.03430     462.3838     344.9481
   1427.01904     464.5283     346.1688   1427.01904     464.5283     346.1688
   1427.00378     468.1150     348.0587   1427.00378     468.1150     348.0587
   1426.98853     471.7246     349.7032   1426.98853     471.7246     349.7032
   1426.97327     473.7700     351.7391   1426.97327     473.7700     351.7391
   1426.95801     477.1075     353.6144   1426.95801     477.1075     353.6144
   1426.94275     480.6112     355.3098   1426.94275     480.6112     355.3098
   1426.92749     483.1484     357.6857   1426.92749     483.1484     357.6857
   1426.91223     486.8526     359.6945   1426.91223     486.8526     359.6945
   1426.89697     489.5670     361.3210   1426.89697     489.5670     361.3210
   1426.88171     492.8941     363.3730   1426.88171     492.8941     363.3730
   1426.86646     496.1013     364.9208   1426.86646     496.1013     364.9208
   1426.85120     499.6320     367.0629   1426.85120     499.6320     367.0629
   1426.83594     501.8397     369.5674   1426.83594     501.8397     369.5674
   1426.82068     505.7036     370.2566   1426.82068     505.7036     370.2566
   1426.80542     508.5163     372.6227   1426.80542     508.5163     372.6227
   1426.79016     512.3026     374.6018   1426.79016     512.3026     374.6018
   1426.77490     515.7328     376.3940   1426.77490     515.7328     376.3940
   1426.75964     519.4628     378.8554   1426.75964     519.4628     378.8554
   1426.74438     521.8149     380.0719   1426.74438     521.8149     380.0719
   1426.72913     525.8989     382.0641   1426.72913     525.8989     382.0641
   1426.71387     528.5208     383.9865   1426.71387     528.5208     383.9865
   1426.69861     531.9583     385.6371   1426.69861     531.9583     385.6371
   1426.68335     535.9222     387.5246   1426.68335     535.9222     387.5246
   1426.66809     539.4586     389.2957   1426.66809     539.4586     389.2957
   1426.65283     543.2531     390.8849   1426.65283     543.2531     390.8849
   1426.63757     545.9104     393.1229   1426.63757     545.9104     393.1229
   1426.62231     551.3317     395.8770   1426.62231     551.3317     395.8770
   1426.60706     553.5741     398.3409   1426.60706     553.5741     398.3409
   1426.59180     555.9260     398.3164   1426.59180     555.9260     398.3164
   1426.57654     559.1458     400.4188   1426.57654     559.1458     400.4188
   1426.56128     562.6891     401.3990   1426.56128     562.6891     401.3990
   1426.54602     564.9568     403.6319   1426.54602     564.9568     403.6319
   1426.53076     569.8196     404.9431   1426.53076     569.8196     404.9431
   1426.51550     573.1759     407.2293   1426.51550     573.1759     407.2293
   1426.50024     576.0958     408.7006   1426.50024     576.0958     408.7006
   1426.48499     578.4219     410.2497   1426.48499     578.4219     410.2497
   1426.46973     583.3896     412.1407   1426.46973     583.3896     412.1407
   1426.45447     586.4797     413.5962   1426.45447     586.4797     413.5962
   1426.43921     589.3331     415.3315   1426.43921     589.3331     415.3315
   1426.42395     592.6196     416.2455   1426.42395     592.6196     416.2455
   1426.40869     596.3626     418.1477   1426.40869     596.3626     418.1477
   1426.39343     599.8586     420.4182   1426.39343     599.8586     420.4182
   1426.37817     602.9823     422.1847   1426.37817     602.9823     422.1847
   1426.36292     606.7246     423.1819   1426.36292     606.7246     423.1819
   1426.34766     610.1749     425.3157   1426.34766     610.1749     425.3157
   1426.33240     613.3381     426.5334   1426.33240     613.3381     426.5334
   1426.31714     616.2910     428.3094   1426.31714     616.2910     428.3094
   1426.30188     618.9813     429.6805   1426.30188     618.9813     429.6805
   1426.28662     622.1850     431.1325   1426.28662     622.1850     431.1325
   1426.27136     625.6478     432.3601   1426.27136     625.6478     432.3601
   1426.25610     630.1165     433.4847   1426.25610     630.1165     433.4847
   1426.24084     632.5513     435.3438   1426.24084     632.5513     435.3438
   1426.22559     636.3407     436.6381   1426.22559     636.3407     436.6381
   1426.21033     638.6772     437.5812   1426.21033     638.6772     437.5812
   1426.19507     641.4124     439.9300   1426.19507     641.4124     439.9300
   1426.17981     646.2463     441.3143   1426.17981     646.2463     441.3143
   1426.16455     648.5458     442.8378   1426.16455     648.5458     442.8378
   1426.14929     652.2738     443.5656   1426.14929     652.2738     443.5656
   1426.13403     654.3372     445.3360   1426.13403     654.3372     445.3360
   1426.11877     656.9664     447.3373   1426.11877     656.9664     447.3373
   1426.10352     661.2158     447.9895   1426.10352     661.2158     447.9895
   1426.08826     662.8112     449.2747   1426.08826     662.8112     449.2747
   1426.07300     666.3050     450.9142   1426.07300     666.3050     450.9142
   1426.05774     669.8989     451.2642   1426.05774     669.8989     451.2642
   1426.04248     671.7586     452.4782   1426.04248     671.7586     452.4782
   1426.02722     674.5270     454.2663   1426.02722     674.5270     454.2663
   1426.01196     677.0911     454.7602   1426.01196     677.0911     454.7602
   1425.99670     680.5276     455.8769   1425.99670     680.5276     455.8769
   1425.98145     682.6866     457.7262   1425.98145     682.6866     457.7262
   1425.96619     685.3295     458.9978   1425.96619     685.3295     458.9978
   1425.95093     689.3450     459.8548   1425.95093     689.3450     459.8548
   1425.93567     691.8679     460.6476   1425.93567     691.8679     460.6476
   1425.92041     695.2925     462.2158   1425.92041     695.2925     462.2158
   1425.90515     697.2131     463.3474   1425.90515     697.2131     463.3474
   1425.88989     698.7509     464.8911   1425.88989     698.7509     464.8911
   1425.87463     701.3994     465.2986   1425.87463     701.3994     465.2986
   1425.85938     703.4689     466.4606   1425.85938     703.4689     466.4606
   1425.84412     707.9054     467.0775   1425.84412     707.9054     467.0775
   1425.82886     709.0636     468.6847   1425.82886     709.0636     468.6847
   1425.81360     711.6573     469.5151   1425.81360     711.6573     469.5151
   1425.79834     714.4248     470.1385   1425.79834     714.4248     470.1385
   1425.78308     715.3307     471.4485   1425.78308     715.3307     471.4485
   1425.76782     719.5327     472.6750   1425.76782     719.5327     472.6750
   1425.75256     720.2332     473.4340   1425.75256     720.2332     473.4340
   1425.73730     723.3892     473.9568   1425.73730     723.3892     473.9568
   1425.72205     726.0107     475.1830   1425.72205     726.0107     475.1830
   1425.70679     727.5768     475.9784   1425.70679     727.5768     475.9784
   1425.69153     729.5752     476.6273   1425.69153     729.5752     476.6273
   1425.67627     732.2766     477.3955   1425.67627     732.2766     477.3955
   1425.66101     734.1400     478.5182   1425.66101     734.1400     478.5182
   1425.64575     735.8500     479.4160   1425.64575     735.8500     479.4160
   1425.63049     739.1094     480.9094   1425.63049     739.1094     480.9094
   1425.61523     739.7876     480.9624   1425.61523     739.7876     480.9624
   1425.59998     741.3356     482.4984   1425.59998     741.3356     482.4984
   1425.58472     745.2956     482.9304   1425.58472     745.2956     482.9304
   1425.56946     745.8609     483.8334   1425.56946     745.8609     483.8334
   1425.55420     748.7620     484.8860   1425.55420     748.7620     484.8860
   1425.53894     748.7589     485.2031   1425.53894     748.7589     485.2031
   1425.52368     751.4121     485.5334   1425.52368     751.4121     485.5334
   1425.50842     752.8563     486.8813   1425.50842     752.8563     486.8813
   1425.49316     754.4237     488.1267   1425.49316     754.4237     488.1267
   1425.47791     756.0997     488.2396   1425.47791     756.0997     488.2396
   1425.46265     758.0027     488.4398   1425.46265     758.0027     488.4398
   1425.44739     760.1340     489.5311   1425.44739     760.1340     489.5311
   1425.43213     761.3448     489.8242   1425.43213     761.3448     489.8242
   1425.41687     762.1616     490.8229   1425.41687     762.1616     490.8229
   1425.40161     763.3723     490.8648   1425.40161     763.3723     490.8648
   1425.38635     765.3921     491.7399   1425.38635     765.3921     491.7399
   1425.37109     767.6431     492.9260   1425.37109     767.6431     492.9260
   1425.35583     768.1297     493.5683   1425.35583     768.1297     493.5683
   1425.34058     769.0670     494.3013   1425.34058     769.0670     494.3013
   1425.32532     769.9215     493.7775   1425.32532     769.9215     493.7775
   1425.31006     771.4492     495.5814   1425.31006     771.4492     495.5814
   1425.29480     773.2664     495.7701   1425.29480     773.2664     495.7701
   1425.27954     774.1345     496.2947   1425.27954     774.1345     496.2947
   1425.26428     773.7813     496.6025   1425.26428     773.7813     496.6025
   1425.24902     776.1862     496.9847   1425.24902     776.1862     496.9847
   1425.23376     776.6885     497.4622   1425.23376     776.6885     497.4622
   1425.21851     778.1997     498.5283   1425.21851     778.1997     498.5283
   1425.20325     779.6970     498.7936   1425.20325     779.6970     498.7936
   1425.18799     779.4742     499.3016   1425.18799     779.4742     499.3016
   1425.17273     781.3640     500.0426   1425.17273     781.3640     500.0426
   1425.15747     781.7314     500.2984   1425.15747     781.7314     500.2984
   1425.14221     781.8658     500.8242   1425.14221     781.8658     500.8242
   1425.12695     782.6962     501.3900   1425.12695     782.6962     501.3900
   1425.11169     783.5634     502.5467   1425.11169     783.5634     502.5467
   1425.09644     785.0385     502.9427   1425.09644     785.0385     502.9427
   1425.08118     786.3984     503.1835   1425.08118     786.3984     503.1835
   1425.06592     786.8892     503.7959   1425.06592     786.8892     503.7959
   1425.05066     787.6560     504.0617   1425.05066     787.6560     504.0617
   1425.03540     787.3931     503.6882   1425.03540     787.3931     503.6882
   1425.02014     788.1287     504.5643   1425.02014     788.1287     504.5643
   1425.00488     788.1589     505.1343   1425.00488     788.1589     505.1343
   1424.98962     788.2659     505.9579   1424.98962     788.2659     505.9579
   1424.97437     789.7604     504.8629   1424.97437     789.7604     504.8629
   1424.95911     789.9658     506.6334   1424.95911     789.9658     506.6334
   1424.94385     790.8465     506.6277   1424.94385     790.8465     506.6277
   1424.92859     789.0402     507.4919   1424.92859     789.0402     507.4919
   1424.91333     790.2139     506.9925   1424.91333     790.2139     506.9925
   1424.89807     790.8049     507.5916   1424.89807     790.8049     507.5916
   1424.88281     791.0984     508.0730   1424.88281     791.0984     508.0730
   1424.86755     792.1048     509.2542   1424.86755     792.1048     509.2542
   1424.85229     792.8188     509.2083   1424.85229     792.8188     509.2083
   1424.83704     791.7890     509.7936   1424.83704     791.7890     509.7936
   1424.82178     793.0131     509.5069   1424.82178     793.0131     509.5069
   1424.80652     792.4092     509.9916   1424.80652     792.4092     509.9916
   1424.79126     792.8604     510.3026   1424.79126     792.8604     510.3026
   1424.77600     793.8490     510.4872   1424.77600     793.8490     510.4872
   1424.76074     792.4465     510.9564   1424.76074     792.4465     510.9564
   1424.74548     795.1226     511.2148   1424.74548     795.1226     511.2148
   1424.73022     793.2653     510.9406   1424.73022     793.2653     510.9406
   1424.71497     790.9446     511.9037   1424.71497     790.9446     511.9037
   1424.69971     794.0532     511.7535   1424.69971     794.0532     511.7535
   1424.68445     793.9789     512.0681   1424.68445     793.9789     512.0681
   1424.66919     793.1020     512.9627   1424.66919     793.1020     512.9627
   1424.65393     791.7382     513.3088   1424.65393     791.7382     513.3088
   1424.63867     792.2261     513.3211   1424.63867     792.2261     513.3211
   1424.62341     791.5361     513.5353   1424.62341     791.5361     513.5353
   1424.60815     791.5699     513.6843   1424.60815     791.5699     513.6843
   1424.59290     791.4865     513.9782   1424.59290     791.4865     513.9782
   1424.57764     791.0388     513.6510   1424.57764     791.0388     513.6510
   1424.56238     792.0530     514.4497   1424.56238     792.0530     514.4497
   1424.54712     790.5555     514.4085   1424.54712     790.5555     514.4085
   1424.53186     789.6133     515.0993   1424.53186     789.6133     515.0993
   1424.51660     790.5389     515.3931   1424.51660     790.5389     515.3931
   1424.50134     790.5217     514.6790   1424.50134     790.5217     514.6790
   1424.48608     789.5914     515.4202   1424.48608     789.5914     515.4202
   1424.47083     788.7805     515.9860   1424.47083     788.7805     515.9860
   1424.45557     789.6705     516.1245   1424.45557     789.6705     516.1245
   1424.44031     787.9949     516.4225   1424.44031     787.9949     516.4225
   1424.42505     788.9077     515.6109   1424.42505     788.9077     515.6109
   1424.40979     786.7567     516.4048   1424.40979     786.7567     516.4048
   1424.39453     787.1714     516.5256   1424.39453     787.1714     516.5256
   1424.37927     787.2693     516.0786   1424.37927     787.2693     516.0786
   1424.36401     785.9509     516.5215   1424.36401     785.9509     516.5215
   1424.34875     785.7509     516.7717   1424.34875     785.7509     516.7717
   1424.33350     785.6786     519.0770   1424.33350     785.6786     519.0770
   1424.31824     786.0904     517.6937   1424.31824     786.0904     517.6937
   1424.30298     785.2171     517.9723   1424.30298     785.2171     517.9723
   1424.28772     784.4690     517.2754   1424.28772     784.4690     517.2754
   1424.27246     783.4688     517.2659   1424.27246     783.4688     517.2659
   1424.25720     782.8837     518.2354   1424.25720     782.8837     518.2354
   1424.24194     783.6047     518.5228   1424.24194     783.6047     518.5228
   1424.22668     782.4084     518.3154   1424.22668     782.4084     518.3154
   1424.21143     781.0703     517.4011   1424.21143     781.0703     517.4011
   1424.19617     779.5602     518.1188   1424.19617     779.5602     518.1188
   1424.18091     780.6461     519.0972   1424.18091     780.6461     519.0972
   1424.16565     778.7800     518.1968   1424.16565     778.7800     518.1968
