#     FILENAME=!Skynet_57528_lach-hhg-172_20556_20995.cyb.fits
#     BASENAME=Skynet_57528_lach-hhg-172_20556_20995
#     SRC_NAME=lach-hhg-172
#     OBSERVER=hhgmadison16_9500
#     DATE_OBS=2016-05-20T18:24:03.620
#        OBSID=20556
#      SCANNUM=20995
#          MJD=57528.7678
#          UTC=66333
#     SCANTYPE=track
#     DATAMODE=HIRES
#     TUNEFREQ=1420.0000
# Actual_FREQ1=1420.0000
# Actual_FREQ2=1420.0000
#    LO1Tuning=6870.000
#     RFFILTER=1355_1435
#        OBSBW=-15.6250
#        NCHAN=1024 
#        FOCUS=37.0709
#           RA=05:25:05.63
#          DEC=35:40:04.59
#      RA(hrs)=5.418200
#     DEC(deg)=35.667900
#    AZIM(deg)=115.660
#    ELEV(deg)=84.022
#     IFattens=11.00, 10.00
#      WARNING=None
#    TCAL_XL1=7.9635
#    TCAL_YR1=9.1340
#    TCAL_XL2=7.9635
#    TCAL_YR2=9.1340
#     TRX_XL1=11.7060
#     TRX_YR1=11.7060
#     TRX_XL2=11.7060
#     TRX_YR2=11.7060
#        TAVE=1.0000
#Freq1(MHz)          XL1          YR1  Freq2(MHz)          XL2          YR2 

   1427.81250     307.6898     285.3952   1427.81250     307.6898     285.3952
   1427.79724     308.2185     286.2356   1427.79724     308.2185     286.2356
   1427.78198     309.0571     287.9984   1427.78198     309.0571     287.9984
   1427.76672     308.9467     289.5934   1427.76672     308.9467     289.5934
   1427.75146     310.0912     291.3279   1427.75146     310.0912     291.3279
   1427.73621     310.6234     292.4067   1427.73621     310.6234     292.4067
   1427.72095     311.2773     294.4192   1427.72095     311.2773     294.4192
   1427.70569     311.5470     295.1130   1427.70569     311.5470     295.1130
   1427.69043     312.4501     297.5074   1427.69043     312.4501     297.5074
   1427.67517     313.3087     299.0543   1427.67517     313.3087     299.0543
   1427.65991     313.9522     301.0028   1427.65991     313.9522     301.0028
   1427.64465     315.1384     302.5460   1427.64465     315.1384     302.5460
   1427.62939     316.1506     304.5117   1427.62939     316.1506     304.5117
   1427.61414     317.2055     306.4440   1427.61414     317.2055     306.4440
   1427.59888     317.9348     308.4350   1427.59888     317.9348     308.4350
   1427.58362     319.1584     310.0756   1427.58362     319.1584     310.0756
   1427.56836     320.5439     311.8569   1427.56836     320.5439     311.8569
   1427.55310     322.1264     314.4981   1427.55310     322.1264     314.4981
   1427.53784     322.5794     316.2691   1427.53784     322.5794     316.2691
   1427.52258     324.2440     318.2585   1427.52258     324.2440     318.2585
   1427.50732     325.3994     320.4117   1427.50732     325.3994     320.4117
   1427.49207     327.1111     322.8989   1427.49207     327.1111     322.8989
   1427.47681     327.9192     324.5706   1427.47681     327.9192     324.5706
   1427.46155     330.1326     327.0704   1427.46155     330.1326     327.0704
   1427.44629     330.9473     329.2507   1427.44629     330.9473     329.2507
   1427.43103     331.9255     331.2212   1427.43103     331.9255     331.2212
   1427.41577     334.0525     333.5887   1427.41577     334.0525     333.5887
   1427.40051     335.5449     336.6455   1427.40051     335.5449     336.6455
   1427.38525     337.0150     338.1157   1427.38525     337.0150     338.1157
   1427.37000     338.7351     340.2858   1427.37000     338.7351     340.2858
   1427.35474     339.8897     342.4052   1427.35474     339.8897     342.4052
   1427.33948     342.2000     345.4578   1427.33948     342.2000     345.4578
   1427.32422     343.3597     348.9110   1427.32422     343.3597     348.9110
   1427.30896     345.4264     350.2986   1427.30896     345.4264     350.2986
   1427.29370     347.7042     353.6539   1427.29370     347.7042     353.6539
   1427.27844     349.3732     355.4298   1427.27844     349.3732     355.4298
   1427.26318     350.5978     357.6300   1427.26318     350.5978     357.6300
   1427.24792     351.7028     360.8760   1427.24792     351.7028     360.8760
   1427.23267     354.1769     363.0674   1427.23267     354.1769     363.0674
   1427.21741     356.2195     365.6194   1427.21741     356.2195     365.6194
   1427.20215     358.0018     368.3791   1427.20215     358.0018     368.3791
   1427.18689     360.0435     370.6153   1427.18689     360.0435     370.6153
   1427.17163     362.2162     373.4625   1427.17163     362.2162     373.4625
   1427.15637     364.1222     375.7379   1427.15637     364.1222     375.7379
   1427.14111     366.2160     378.5037   1427.14111     366.2160     378.5037
   1427.12585     368.5381     381.4055   1427.12585     368.5381     381.4055
   1427.11060     369.9837     383.7121   1427.11060     369.9837     383.7121
   1427.09534     372.8228     385.8143   1427.09534     372.8228     385.8143
   1427.08008     374.6217     389.0811   1427.08008     374.6217     389.0811
   1427.06482     377.4870     392.3268   1427.06482     377.4870     392.3268
   1427.04956     378.9291     393.9317   1427.04956     378.9291     393.9317
   1427.03430     382.1849     396.7684   1427.03430     382.1849     396.7684
   1427.01904     383.3647     399.4641   1427.01904     383.3647     399.4641
   1427.00378     386.2528     401.8405   1427.00378     386.2528     401.8405
   1426.98853     388.3341     404.7337   1426.98853     388.3341     404.7337
   1426.97327     390.5208     407.9980   1426.97327     390.5208     407.9980
   1426.95801     392.2387     409.5893   1426.95801     392.2387     409.5893
   1426.94275     395.1308     412.7087   1426.94275     395.1308     412.7087
   1426.92749     396.9461     414.6194   1426.92749     396.9461     414.6194
   1426.91223     399.8136     417.9226   1426.91223     399.8136     417.9226
   1426.89697     402.5418     420.0588   1426.89697     402.5418     420.0588
   1426.88171     404.9798     422.7756   1426.88171     404.9798     422.7756
   1426.86646     407.0328     425.5509   1426.86646     407.0328     425.5509
   1426.85120     409.9649     427.8808   1426.85120     409.9649     427.8808
   1426.83594     412.0507     429.7601   1426.83594     412.0507     429.7601
   1426.82068     414.3862     432.4336   1426.82068     414.3862     432.4336
   1426.80542     417.0558     435.5490   1426.80542     417.0558     435.5490
   1426.79016     419.2542     437.8020   1426.79016     419.2542     437.8020
   1426.77490     421.9033     440.1448   1426.77490     421.9033     440.1448
   1426.75964     424.0982     442.0797   1426.75964     424.0982     442.0797
   1426.74438     425.4446     445.2455   1426.74438     425.4446     445.2455
   1426.72913     429.1006     447.6902   1426.72913     429.1006     447.6902
   1426.71387     431.3750     449.6616   1426.71387     431.3750     449.6616
   1426.69861     433.8919     452.8395   1426.69861     433.8919     452.8395
   1426.68335     437.0237     454.2166   1426.68335     437.0237     454.2166
   1426.66809     438.5350     457.0318   1426.66809     438.5350     457.0318
   1426.65283     440.3206     459.2872   1426.65283     440.3206     459.2872
   1426.63757     444.0395     461.3252   1426.63757     444.0395     461.3252
   1426.62231     447.1667     470.0306   1426.62231     447.1667     470.0306
   1426.60706     449.6203     465.8293   1426.60706     449.6203     465.8293
   1426.59180     451.1496     468.1015   1426.59180     451.1496     468.1015
   1426.57654     453.8674     470.3022   1426.57654     453.8674     470.3022
   1426.56128     457.0252     471.9489   1426.56128     457.0252     471.9489
   1426.54602     458.4746     473.7262   1426.54602     458.4746     473.7262
   1426.53076     460.9861     476.2985   1426.53076     460.9861     476.2985
   1426.51550     463.4322     478.4928   1426.51550     463.4322     478.4928
   1426.50024     465.6071     480.1597   1426.50024     465.6071     480.1597
   1426.48499     469.2561     482.6888   1426.48499     469.2561     482.6888
   1426.46973     471.4166     485.2052   1426.46973     471.4166     485.2052
   1426.45447     474.0606     486.0247   1426.45447     474.0606     486.0247
   1426.43921     476.6045     488.1039   1426.43921     476.6045     488.1039
   1426.42395     478.7613     490.8287   1426.42395     478.7613     490.8287
   1426.40869     481.0099     492.7024   1426.40869     481.0099     492.7024
   1426.39343     483.5322     494.1543   1426.39343     483.5322     494.1543
   1426.37817     486.2521     495.3804   1426.37817     486.2521     495.3804
   1426.36292     488.0218     497.8307   1426.36292     488.0218     497.8307
   1426.34766     490.1241     499.5412   1426.34766     490.1241     499.5412
   1426.33240     492.9857     501.2364   1426.33240     492.9857     501.2364
   1426.31714     495.1930     502.8129   1426.31714     495.1930     502.8129
   1426.30188     497.9224     504.7598   1426.30188     497.9224     504.7598
   1426.28662     499.7605     506.7797   1426.28662     499.7605     506.7797
   1426.27136     501.9267     507.6392   1426.27136     501.9267     507.6392
   1426.25610     504.4661     509.4671   1426.25610     504.4661     509.4671
   1426.24084     507.3131     511.3673   1426.24084     507.3131     511.3673
   1426.22559     509.7790     512.6933   1426.22559     509.7790     512.6933
   1426.21033     511.2396     513.6498   1426.21033     511.2396     513.6498
   1426.19507     513.6909     515.3134   1426.19507     513.6909     515.3134
   1426.17981     515.9975     516.0086   1426.17981     515.9975     516.0086
   1426.16455     519.0786     517.8707   1426.16455     519.0786     517.8707
   1426.14929     519.7525     519.1340   1426.14929     519.7525     519.1340
   1426.13403     522.6420     520.3229   1426.13403     522.6420     520.3229
   1426.11877     524.9695     522.3865   1426.11877     524.9695     522.3865
   1426.10352     526.5190     523.7634   1426.10352     526.5190     523.7634
   1426.08826     528.7241     524.9221   1426.08826     528.7241     524.9221
   1426.07300     530.7531     525.1672   1426.07300     530.7531     525.1672
   1426.05774     533.5551     526.8542   1426.05774     533.5551     526.8542
   1426.04248     535.6969     528.5475   1426.04248     535.6969     528.5475
   1426.02722     537.4472     528.8565   1426.02722     537.4472     528.8565
   1426.01196     539.0767     530.0067   1426.01196     539.0767     530.0067
   1425.99670     540.9191     531.8460   1425.99670     540.9191     531.8460
   1425.98145     543.6371     532.2778   1425.98145     543.6371     532.2778
   1425.96619     544.9537     532.7690   1425.96619     544.9537     532.7690
   1425.95093     547.3525     534.8071   1425.95093     547.3525     534.8071
   1425.93567     548.5033     535.3028   1425.93567     548.5033     535.3028
   1425.92041     550.9102     536.8352   1425.92041     550.9102     536.8352
   1425.90515     551.9780     536.7531   1425.90515     551.9780     536.7531
   1425.88989     554.9524     537.6304   1425.88989     554.9524     537.6304
   1425.87463     556.6045     537.9346   1425.87463     556.6045     537.9346
   1425.85938     558.0531     538.9464   1425.85938     558.0531     538.9464
   1425.84412     560.2286     540.3794   1425.84412     560.2286     540.3794
   1425.82886     562.1096     540.7861   1425.82886     562.1096     540.7861
   1425.81360     562.9760     540.7292   1425.81360     562.9760     540.7292
   1425.79834     565.2914     542.4716   1425.79834     565.2914     542.4716
   1425.78308     566.8787     542.4640   1425.78308     566.8787     542.4640
   1425.76782     569.0436     543.9098   1425.76782     569.0436     543.9098
   1425.75256     570.3179     543.7775   1425.75256     570.3179     543.7775
   1425.73730     571.0249     545.4530   1425.73730     571.0249     545.4530
   1425.72205     573.5021     545.4285   1425.72205     573.5021     545.4285
   1425.70679     574.2394     546.3718   1425.70679     574.2394     546.3718
   1425.69153     575.8563     545.9949   1425.69153     575.8563     545.9949
   1425.67627     578.5051     546.9718   1425.67627     578.5051     546.9718
   1425.66101     579.9194     547.6136   1425.66101     579.9194     547.6136
   1425.64575     581.5719     548.8021   1425.64575     581.5719     548.8021
   1425.63049     582.0240     548.3870   1425.63049     582.0240     548.3870
   1425.61523     583.3900     549.3719   1425.61523     583.3900     549.3719
   1425.59998     584.9977     549.3665   1425.59998     584.9977     549.3665
   1425.58472     586.8904     549.8774   1425.58472     586.8904     549.8774
   1425.56946     588.3292     550.0183   1425.56946     588.3292     550.0183
   1425.55420     589.3199     549.8336   1425.55420     589.3199     549.8336
   1425.53894     591.2711     550.9340   1425.53894     591.2711     550.9340
   1425.52368     590.7944     550.3149   1425.52368     590.7944     550.3149
   1425.50842     592.5708     550.6984   1425.50842     592.5708     550.6984
   1425.49316     593.6925     551.2790   1425.49316     593.6925     551.2790
   1425.47791     595.0135     551.6579   1425.47791     595.0135     551.6579
   1425.46265     596.8941     552.3089   1425.46265     596.8941     552.3089
   1425.44739     597.2250     552.5608   1425.44739     597.2250     552.5608
   1425.43213     598.1788     552.3015   1425.43213     598.1788     552.3015
   1425.41687     600.7851     553.4144   1425.41687     600.7851     553.4144
   1425.40161     599.5983     552.0598   1425.40161     599.5983     552.0598
   1425.38635     600.7352     552.0660   1425.38635     600.7352     552.0660
   1425.37109     603.0538     553.4897   1425.37109     603.0538     553.4897
   1425.35583     603.7587     553.6432   1425.35583     603.7587     553.6432
   1425.34058     604.7603     552.9526   1425.34058     604.7603     552.9526
   1425.32532     605.7872     552.3308   1425.32532     605.7872     552.3308
   1425.31006     606.4128     553.4493   1425.31006     606.4128     553.4493
   1425.29480     607.5097     553.3314   1425.29480     607.5097     553.3314
   1425.27954     608.3578     552.7847   1425.27954     608.3578     552.7847
   1425.26428     609.2130     552.7640   1425.26428     609.2130     552.7640
   1425.24902     608.3958     552.8542   1425.24902     608.3958     552.8542
   1425.23376     610.1573     552.2683   1425.23376     610.1573     552.2683
   1425.21851     610.5962     553.0045   1425.21851     610.5962     553.0045
   1425.20325     611.7277     552.1616   1425.20325     611.7277     552.1616
   1425.18799     612.5391     552.5835   1425.18799     612.5391     552.5835
   1425.17273     612.5926     551.8550   1425.17273     612.5926     551.8550
   1425.15747     614.0926     552.0924   1425.15747     614.0926     552.0924
   1425.14221     613.7764     552.1302   1425.14221     613.7764     552.1302
   1425.12695     615.5193     551.7843   1425.12695     615.5193     551.7843
   1425.11169     615.0274     552.0009   1425.11169     615.0274     552.0009
   1425.09644     616.5712     550.9283   1425.09644     616.5712     550.9283
   1425.08118     616.7847     551.7158   1425.08118     616.7847     551.7158
   1425.06592     617.7808     550.1581   1425.06592     617.7808     550.1581
   1425.05066     618.0719     550.8287   1425.05066     618.0719     550.8287
   1425.03540     618.2740     551.0087   1425.03540     618.2740     551.0087
   1425.02014     618.5181     550.6431   1425.02014     618.5181     550.6431
   1425.00488     619.4110     550.6136   1425.00488     619.4110     550.6136
   1424.98962     619.7043     549.3369   1424.98962     619.7043     549.3369
   1424.97437     620.1066     550.1368   1424.97437     620.1066     550.1368
   1424.95911     620.7009     549.2630   1424.95911     620.7009     549.2630
   1424.94385     620.7495     549.4059   1424.94385     620.7495     549.4059
   1424.92859     620.3071     549.8517   1424.92859     620.3071     549.8517
   1424.91333     620.8309     548.1519   1424.91333     620.8309     548.1519
   1424.89807     620.5695     548.0295   1424.89807     620.5695     548.0295
   1424.88281     621.8729     547.8589   1424.88281     621.8729     547.8589
   1424.86755     621.7330     547.5225   1424.86755     621.7330     547.5225
   1424.85229     621.8785     546.1157   1424.85229     621.8785     546.1157
   1424.83704     622.1718     547.4877   1424.83704     622.1718     547.4877
   1424.82178     622.5187     546.3094   1424.82178     622.5187     546.3094
   1424.80652     622.7493     547.1636   1424.80652     622.7493     547.1636
   1424.79126     622.5820     546.2064   1424.79126     622.5820     546.2064
   1424.77600     623.2162     546.3295   1424.77600     623.2162     546.3295
   1424.76074     623.0605     544.4247   1424.76074     623.0605     544.4247
   1424.74548     623.8027     543.7180   1424.74548     623.8027     543.7180
   1424.73022     624.3787     544.0103   1424.73022     624.3787     544.0103
   1424.71497     623.8996     543.5870   1424.71497     623.8996     543.5870
   1424.69971     623.3818     543.1015   1424.69971     623.3818     543.1015
   1424.68445     624.9395     542.5425   1424.68445     624.9395     542.5425
   1424.66919     623.0326     542.4944   1424.66919     623.0326     542.4944
   1424.65393     624.0820     542.2180   1424.65393     624.0820     542.2180
   1424.63867     623.6096     542.0590   1424.63867     623.6096     542.0590
   1424.62341     623.5287     540.9377   1424.62341     623.5287     540.9377
   1424.60815     623.8341     539.9738   1424.60815     623.8341     539.9738
   1424.59290     623.9234     540.2043   1424.59290     623.9234     540.2043
   1424.57764     623.0256     539.4806   1424.57764     623.0256     539.4806
   1424.56238     623.4578     539.2874   1424.56238     623.4578     539.2874
   1424.54712     623.5745     537.9357   1424.54712     623.5745     537.9357
   1424.53186     622.9200     538.0279   1424.53186     622.9200     538.0279
   1424.51660     622.9177     537.7345   1424.51660     622.9177     537.7345
   1424.50134     622.1418     538.1047   1424.50134     622.1418     538.1047
   1424.48608     622.1539     536.9450   1424.48608     622.1539     536.9450
   1424.47083     623.2526     535.5793   1424.47083     623.2526     535.5793
   1424.45557     622.9700     535.7052   1424.45557     622.9700     535.7052
   1424.44031     622.2393     535.1797   1424.44031     622.2393     535.1797
   1424.42505     622.5067     534.1774   1424.42505     622.5067     534.1774
   1424.40979     622.0839     533.3544   1424.40979     622.0839     533.3544
   1424.39453     622.2946     533.3174   1424.39453     622.2946     533.3174
   1424.37927     621.9241     532.1176   1424.37927     621.9241     532.1176
   1424.36401     621.9003     532.6846   1424.36401     621.9003     532.6846
   1424.34875     621.2250     532.3543   1424.34875     621.2250     532.3543
   1424.33350     621.5726     531.1264   1424.33350     621.5726     531.1264
   1424.31824     621.2744     530.9497   1424.31824     621.2744     530.9497
   1424.30298     620.3456     530.5390   1424.30298     620.3456     530.5390
   1424.28772     620.6153     530.1938   1424.28772     620.6153     530.1938
   1424.27246     620.8594     528.7266   1424.27246     620.8594     528.7266
   1424.25720     620.1647     528.9026   1424.25720     620.1647     528.9026
   1424.24194     620.6451     527.8246   1424.24194     620.6451     527.8246
   1424.22668     620.0262     527.4257   1424.22668     620.0262     527.4257
   1424.21143     619.5939     526.2474   1424.21143     619.5939     526.2474
   1424.19617     618.9558     526.0558   1424.19617     618.9558     526.0558
   1424.18091     618.0092     525.2841   1424.18091     618.0092     525.2841
   1424.16565     618.3268     524.7841   1424.16565     618.3268     524.7841
