#     FILENAME=!Skynet_57528_lach-cc-223_20637_21035.cyb.fits
#     BASENAME=Skynet_57528_lach-cc-223_20637_21035
#     SRC_NAME=lach-cc-223
#     OBSERVER=ccmadison16_9505
#     DATE_OBS=2016-05-20T19:46:19.000
#        OBSID=20637
#      SCANNUM=21035
#          MJD=57528.8249
#          UTC=71268
#     SCANTYPE=track
#     DATAMODE=HIRES
#     TUNEFREQ=1420.0000
# Actual_FREQ1=1420.0000
# Actual_FREQ2=1420.0000
#    LO1Tuning=6870.000
#     RFFILTER=1355_1435
#        OBSBW=-15.6250
#        NCHAN=1024 
#        FOCUS=37.0709
#           RA=07:09:56.84
#          DEC=-08:56:58.98
#      RA(hrs)=7.165800
#     DEC(deg)=-8.949700
#    AZIM(deg)=163.561
#    ELEV(deg)=41.119
#     IFattens=10.00, 9.00
#      WARNING=None
#    TCAL_XL1=7.9635
#    TCAL_YR1=9.1340
#    TCAL_XL2=7.9635
#    TCAL_YR2=9.1340
#     TRX_XL1=11.7060
#     TRX_YR1=11.7060
#     TRX_XL2=11.7060
#     TRX_YR2=11.7060
#        TAVE=1.0000
#Freq1(MHz)          XL1          YR1  Freq2(MHz)          XL2          YR2 

   1427.81250     354.6919     269.3733   1427.81250     354.6919     269.3733
   1427.79724     355.6209     270.4343   1427.79724     355.6209     270.4343
   1427.78198     356.4467     270.3411   1427.78198     356.4467     270.3411
   1427.76672     356.7623     270.9211   1427.76672     356.7623     270.9211
   1427.75146     357.8706     271.7942   1427.75146     357.8706     271.7942
   1427.73621     358.4154     272.1620   1427.73621     358.4154     272.1620
   1427.72095     359.6569     272.8575   1427.72095     359.6569     272.8575
   1427.70569     360.1772     273.5681   1427.70569     360.1772     273.5681
   1427.69043     360.9872     274.5146   1427.69043     360.9872     274.5146
   1427.67517     362.1054     275.5881   1427.67517     362.1054     275.5881
   1427.65991     363.7766     275.9074   1427.65991     363.7766     275.9074
   1427.64465     364.5068     276.9018   1427.64465     364.5068     276.9018
   1427.62939     366.2200     277.6272   1427.62939     366.2200     277.6272
   1427.61414     367.7003     279.1517   1427.61414     367.7003     279.1517
   1427.59888     368.5709     279.3633   1427.59888     368.5709     279.3633
   1427.58362     369.9783     280.2418   1427.58362     369.9783     280.2418
   1427.56836     371.5433     281.6772   1427.56836     371.5433     281.6772
   1427.55310     372.9542     283.1731   1427.55310     372.9542     283.1731
   1427.53784     374.1362     284.0939   1427.53784     374.1362     284.0939
   1427.52258     375.6520     285.0608   1427.52258     375.6520     285.0608
   1427.50732     377.3044     286.6324   1427.50732     377.3044     286.6324
   1427.49207     378.9391     287.5909   1427.49207     378.9391     287.5909
   1427.47681     380.3648     289.0703   1427.47681     380.3648     289.0703
   1427.46155     382.3657     290.3127   1427.46155     382.3657     290.3127
   1427.44629     384.1719     291.1349   1427.44629     384.1719     291.1349
   1427.43103     385.1293     292.9492   1427.43103     385.1293     292.9492
   1427.41577     387.7175     294.1539   1427.41577     387.7175     294.1539
   1427.40051     389.3295     295.1938   1427.40051     389.3295     295.1938
   1427.38525     391.3227     297.1764   1427.38525     391.3227     297.1764
   1427.37000     393.8464     298.4245   1427.37000     393.8464     298.4245
   1427.35474     395.9358     300.4927   1427.35474     395.9358     300.4927
   1427.33948     397.1491     301.6716   1427.33948     397.1491     301.6716
   1427.32422     400.0446     303.4108   1427.32422     400.0446     303.4108
   1427.30896     401.6570     304.9470   1427.30896     401.6570     304.9470
   1427.29370     403.5085     306.5267   1427.29370     403.5085     306.5267
   1427.27844     405.7499     307.8745   1427.27844     405.7499     307.8745
   1427.26318     407.9277     309.4192   1427.26318     407.9277     309.4192
   1427.24792     410.4687     312.0690   1427.24792     410.4687     312.0690
   1427.23267     412.3471     313.6020   1427.23267     412.3471     313.6020
   1427.21741     414.8359     315.2592   1427.21741     414.8359     315.2592
   1427.20215     416.6348     317.5356   1427.20215     416.6348     317.5356
   1427.18689     419.4297     318.9046   1427.18689     419.4297     318.9046
   1427.17163     421.6514     320.5209   1427.17163     421.6514     320.5209
   1427.15637     424.3502     322.9018   1427.15637     424.3502     322.9018
   1427.14111     427.0262     324.4105   1427.14111     427.0262     324.4105
   1427.12585     428.8693     326.8215   1427.12585     428.8693     326.8215
   1427.11060     431.0717     328.9660   1427.11060     431.0717     328.9660
   1427.09534     434.2237     330.3163   1427.09534     434.2237     330.3163
   1427.08008     437.0053     332.6945   1427.08008     437.0053     332.6945
   1427.06482     439.5217     334.4247   1427.06482     439.5217     334.4247
   1427.04956     440.8242     336.3467   1427.04956     440.8242     336.3467
   1427.03430     444.6805     338.8074   1427.03430     444.6805     338.8074
   1427.01904     446.1915     341.3986   1427.01904     446.1915     341.3986
   1427.00378     449.2359     343.3013   1427.00378     449.2359     343.3013
   1426.98853     452.1314     345.4311   1426.98853     452.1314     345.4311
   1426.97327     454.4476     347.7034   1426.97327     454.4476     347.7034
   1426.95801     457.7642     349.9132   1426.95801     457.7642     349.9132
   1426.94275     460.2085     352.2226   1426.94275     460.2085     352.2226
   1426.92749     462.3163     354.0285   1426.92749     462.3163     354.0285
   1426.91223     465.7317     356.9041   1426.91223     465.7317     356.9041
   1426.89697     467.9281     358.1453   1426.89697     467.9281     358.1453
   1426.88171     471.0123     360.9527   1426.88171     471.0123     360.9527
   1426.86646     473.5828     363.4097   1426.86646     473.5828     363.4097
   1426.85120     475.6988     365.4271   1426.85120     475.6988     365.4271
   1426.83594     479.3513     367.5846   1426.83594     479.3513     367.5846
   1426.82068     482.0156     370.0484   1426.82068     482.0156     370.0484
   1426.80542     484.4252     372.9099   1426.80542     484.4252     372.9099
   1426.79016     487.4523     374.9321   1426.79016     487.4523     374.9321
   1426.77490     490.1055     377.1817   1426.77490     490.1055     377.1817
   1426.75964     492.0455     379.8979   1426.75964     492.0455     379.8979
   1426.74438     496.2877     381.9745   1426.74438     496.2877     381.9745
   1426.72913     498.3517     384.6005   1426.72913     498.3517     384.6005
   1426.71387     500.7343     387.0077   1426.71387     500.7343     387.0077
   1426.69861     503.8707     389.2128   1426.69861     503.8707     389.2128
   1426.68335     506.5478     392.0967   1426.68335     506.5478     392.0967
   1426.66809     509.2747     394.5373   1426.66809     509.2747     394.5373
   1426.65283     512.1602     397.0552   1426.65283     512.1602     397.0552
   1426.63757     514.8931     399.2944   1426.63757     514.8931     399.2944
   1426.62231     519.3655     402.3250   1426.62231     519.3655     402.3250
   1426.60706     520.5420     403.6373   1426.60706     520.5420     403.6373
   1426.59180     524.0829     406.7098   1426.59180     524.0829     406.7098
   1426.57654     525.5510     408.7873   1426.57654     525.5510     408.7873
   1426.56128     528.4864     411.2670   1426.56128     528.4864     411.2670
   1426.54602     531.0237     413.8803   1426.54602     531.0237     413.8803
   1426.53076     534.1587     416.6898   1426.53076     534.1587     416.6898
   1426.51550     536.5879     419.0370   1426.51550     536.5879     419.0370
   1426.50024     539.5878     422.0125   1426.50024     539.5878     422.0125
   1426.48499     541.5582     423.8796   1426.48499     541.5582     423.8796
   1426.46973     544.4884     426.9624   1426.46973     544.4884     426.9624
   1426.45447     547.8392     429.6367   1426.45447     547.8392     429.6367
   1426.43921     549.9741     432.3183   1426.43921     549.9741     432.3183
   1426.42395     553.2990     433.9694   1426.42395     553.2990     433.9694
   1426.40869     555.1316     436.6914   1426.40869     555.1316     436.6914
   1426.39343     559.1943     439.1587   1426.39343     559.1943     439.1587
   1426.37817     561.8350     442.1695   1426.37817     561.8350     442.1695
   1426.36292     563.4571     444.1192   1426.36292     563.4571     444.1192
   1426.34766     566.5423     446.5108   1426.34766     566.5423     446.5108
   1426.33240     568.7479     449.4022   1426.33240     568.7479     449.4022
   1426.31714     571.0767     451.7549   1426.31714     571.0767     451.7549
   1426.30188     573.6519     453.6265   1426.30188     573.6519     453.6265
   1426.28662     576.5961     456.6836   1426.28662     576.5961     456.6836
   1426.27136     578.8088     458.7614   1426.27136     578.8088     458.7614
   1426.25610     580.9942     461.8403   1426.25610     580.9942     461.8403
   1426.24084     583.6833     463.8629   1426.24084     583.6833     463.8629
   1426.22559     585.8295     467.2828   1426.22559     585.8295     467.2828
   1426.21033     587.9678     469.4153   1426.21033     587.9678     469.4153
   1426.19507     591.2437     471.1617   1426.19507     591.2437     471.1617
   1426.17981     594.1187     474.0334   1426.17981     594.1187     474.0334
   1426.16455     596.1813     476.3901   1426.16455     596.1813     476.3901
   1426.14929     597.6196     478.3102   1426.14929     597.6196     478.3102
   1426.13403     600.4691     481.4638   1426.13403     600.4691     481.4638
   1426.11877     603.3179     483.5781   1426.11877     603.3179     483.5781
   1426.10352     604.9189     485.4715   1426.10352     604.9189     485.4715
   1426.08826     607.5296     488.0589   1426.08826     607.5296     488.0589
   1426.07300     609.8301     490.1673   1426.07300     609.8301     490.1673
   1426.05774     611.6980     492.6670   1426.05774     611.6980     492.6670
   1426.04248     614.4984     495.1631   1426.04248     614.4984     495.1631
   1426.02722     615.9355     498.3091   1426.02722     615.9355     498.3091
   1426.01196     617.1898     499.4257   1426.01196     617.1898     499.4257
   1425.99670     620.1083     502.2833   1425.99670     620.1083     502.2833
   1425.98145     621.5906     504.5687   1425.98145     621.5906     504.5687
   1425.96619     623.8840     506.8518   1425.96619     623.8840     506.8518
   1425.95093     626.1580     509.3162   1425.95093     626.1580     509.3162
   1425.93567     628.0927     511.2850   1425.93567     628.0927     511.2850
   1425.92041     630.3891     512.8135   1425.92041     630.3891     512.8135
   1425.90515     631.1909     515.6009   1425.90515     631.1909     515.6009
   1425.88989     634.6481     518.5629   1425.88989     634.6481     518.5629
   1425.87463     636.4373     519.5921   1425.87463     636.4373     519.5921
   1425.85938     638.3077     522.4435   1425.85938     638.3077     522.4435
   1425.84412     640.5209     524.1963   1425.84412     640.5209     524.1963
   1425.82886     641.6089     526.4109   1425.82886     641.6089     526.4109
   1425.81360     644.4335     529.2236   1425.81360     644.4335     529.2236
   1425.79834     645.3939     530.9914   1425.79834     645.3939     530.9914
   1425.78308     646.9059     534.2496   1425.78308     646.9059     534.2496
   1425.76782     648.6061     535.6854   1425.76782     648.6061     535.6854
   1425.75256     650.9338     537.7277   1425.75256     650.9338     537.7277
   1425.73730     651.7615     539.8097   1425.73730     651.7615     539.8097
   1425.72205     653.3104     542.1695   1425.72205     653.3104     542.1695
   1425.70679     654.8705     543.8226   1425.70679     654.8705     543.8226
   1425.69153     655.6137     545.9332   1425.69153     655.6137     545.9332
   1425.67627     656.9108     547.0232   1425.67627     656.9108     547.0232
   1425.66101     660.2987     549.8571   1425.66101     660.2987     549.8571
   1425.64575     661.3945     552.4426   1425.64575     661.3945     552.4426
   1425.63049     661.6862     553.7225   1425.63049     661.6862     553.7225
   1425.61523     665.0215     556.5328   1425.61523     665.0215     556.5328
   1425.59998     666.2794     557.4992   1425.59998     666.2794     557.4992
   1425.58472     666.8058     560.7341   1425.58472     666.8058     560.7341
   1425.56946     667.8679     561.8578   1425.56946     667.8679     561.8578
   1425.55420     668.2398     563.4297   1425.55420     668.2398     563.4297
   1425.53894     669.9158     566.3101   1425.53894     669.9158     566.3101
   1425.52368     670.5247     567.5944   1425.52368     670.5247     567.5944
   1425.50842     673.5376     570.3068   1425.50842     673.5376     570.3068
   1425.49316     674.2444     571.0071   1425.49316     674.2444     571.0071
   1425.47791     674.9816     573.8938   1425.47791     674.9816     573.8938
   1425.46265     677.3503     574.5779   1425.46265     677.3503     574.5779
   1425.44739     678.2012     577.5118   1425.44739     678.2012     577.5118
   1425.43213     678.6113     578.2429   1425.43213     678.6113     578.2429
   1425.41687     680.7205     582.6661   1425.41687     680.7205     582.6661
   1425.40161     681.2047     582.0189   1425.40161     681.2047     582.0189
   1425.38635     682.1531     583.4949   1425.38635     682.1531     583.4949
   1425.37109     682.8348     585.7506   1425.37109     682.8348     585.7506
   1425.35583     683.7014     586.9113   1425.35583     683.7014     586.9113
   1425.34058     684.7294     589.7829   1425.34058     684.7294     589.7829
   1425.32532     686.0453     591.6107   1425.32532     686.0453     591.6107
   1425.31006     686.7167     592.4812   1425.31006     686.7167     592.4812
   1425.29480     688.1185     595.0626   1425.29480     688.1185     595.0626
   1425.27954     688.3672     595.3446   1425.27954     688.3672     595.3446
   1425.26428     689.6887     597.6250   1425.26428     689.6887     597.6250
   1425.24902     690.4761     598.3000   1425.24902     690.4761     598.3000
   1425.23376     690.4842     600.4611   1425.23376     690.4842     600.4611
   1425.21851     692.1579     601.5776   1425.21851     692.1579     601.5776
   1425.20325     693.3071     602.6158   1425.20325     693.3071     602.6158
   1425.18799     693.1992     605.1064   1425.18799     693.1992     605.1064
   1425.17273     693.3329     605.6010   1425.17273     693.3329     605.6010
   1425.15747     694.5085     608.4846   1425.15747     694.5085     608.4846
   1425.14221     695.5592     609.7556   1425.14221     695.5592     609.7556
   1425.12695     695.7347     610.3571   1425.12695     695.7347     610.3571
   1425.11169     695.4227     612.6990   1425.11169     695.4227     612.6990
   1425.09644     696.5485     613.3414   1425.09644     696.5485     613.3414
   1425.08118     697.7563     614.9927   1425.08118     697.7563     614.9927
   1425.06592     697.7686     616.0746   1425.06592     697.7686     616.0746
   1425.05066     699.5071     616.6102   1425.05066     699.5071     616.6102
   1425.03540     699.7513     618.3270   1425.03540     699.7513     618.3270
   1425.02014     700.0601     620.0685   1425.02014     700.0601     620.0685
   1425.00488     700.8805     621.2848   1425.00488     700.8805     621.2848
   1424.98962     700.8818     621.6609   1424.98962     700.8818     621.6609
   1424.97437     700.9175     623.0039   1424.97437     700.9175     623.0039
   1424.95911     701.3164     625.2814   1424.95911     701.3164     625.2814
   1424.94385     701.4639     625.7823   1424.94385     701.4639     625.7823
   1424.92859     702.7902     626.7279   1424.92859     702.7902     626.7279
   1424.91333     703.5055     627.5841   1424.91333     703.5055     627.5841
   1424.89807     702.8898     628.9196   1424.89807     702.8898     628.9196
   1424.88281     703.1880     630.2225   1424.88281     703.1880     630.2225
   1424.86755     704.7459     631.4261   1424.86755     704.7459     631.4261
   1424.85229     704.7430     633.6049   1424.85229     704.7430     633.6049
   1424.83704     704.7200     634.1763   1424.83704     704.7200     634.1763
   1424.82178     704.0534     633.3748   1424.82178     704.0534     633.3748
   1424.80652     704.3689     636.1014   1424.80652     704.3689     636.1014
   1424.79126     705.5660     637.0945   1424.79126     705.5660     637.0945
   1424.77600     704.2332     637.6225   1424.77600     704.2332     637.6225
   1424.76074     705.8820     638.7932   1424.76074     705.8820     638.7932
   1424.74548     706.0418     638.7043   1424.74548     706.0418     638.7043
   1424.73022     706.0862     640.0786   1424.73022     706.0862     640.0786
   1424.71497     705.6187     641.2006   1424.71497     705.6187     641.2006
   1424.69971     706.7001     641.6230   1424.69971     706.7001     641.6230
   1424.68445     706.3496     643.5961   1424.68445     706.3496     643.5961
   1424.66919     706.1479     643.4882   1424.66919     706.1479     643.4882
   1424.65393     707.1404     644.3046   1424.65393     707.1404     644.3046
   1424.63867     706.0992     645.6225   1424.63867     706.0992     645.6225
   1424.62341     706.6464     647.3053   1424.62341     706.6464     647.3053
   1424.60815     705.9891     647.1447   1424.60815     705.9891     647.1447
   1424.59290     706.5675     646.5372   1424.59290     706.5675     646.5372
   1424.57764     706.5560     649.2373   1424.57764     706.5560     649.2373
   1424.56238     706.1245     648.9917   1424.56238     706.1245     648.9917
   1424.54712     707.9318     649.6924   1424.54712     707.9318     649.6924
   1424.53186     707.0266     651.2251   1424.53186     707.0266     651.2251
   1424.51660     706.8641     650.1085   1424.51660     706.8641     650.1085
   1424.50134     707.9859     651.5551   1424.50134     707.9859     651.5551
   1424.48608     707.0071     652.8234   1424.48608     707.0071     652.8234
   1424.47083     707.7693     653.1962   1424.47083     707.7693     653.1962
   1424.45557     707.7172     653.0554   1424.45557     707.7172     653.0554
   1424.44031     706.8739     653.9979   1424.44031     706.8739     653.9979
   1424.42505     707.6982     653.8594   1424.42505     707.6982     653.8594
   1424.40979     706.7885     655.0590   1424.40979     706.7885     655.0590
   1424.39453     706.0604     656.2463   1424.39453     706.0604     656.2463
   1424.37927     707.7521     656.1119   1424.37927     707.7521     656.1119
   1424.36401     706.3989     656.6340   1424.36401     706.3989     656.6340
   1424.34875     706.4141     657.0806   1424.34875     706.4141     657.0806
   1424.33350     706.2966     656.6708   1424.33350     706.2966     656.6708
   1424.31824     706.4658     657.7494   1424.31824     706.4658     657.7494
   1424.30298     705.7546     657.1372   1424.30298     705.7546     657.1372
   1424.28772     706.3153     657.1260   1424.28772     706.3153     657.1260
   1424.27246     706.2966     657.4191   1424.27246     706.2966     657.4191
   1424.25720     706.5061     658.2302   1424.25720     706.5061     658.2302
   1424.24194     706.8249     658.6413   1424.24194     706.8249     658.6413
   1424.22668     706.7126     659.8032   1424.22668     706.7126     659.8032
   1424.21143     705.9773     659.0289   1424.21143     705.9773     659.0289
   1424.19617     706.6894     659.2838   1424.19617     706.6894     659.2838
   1424.18091     704.4742     660.0432   1424.18091     704.4742     660.0432
   1424.16565     705.9159     659.7709   1424.16565     705.9159     659.7709
