#     FILENAME=!Skynet_57528_lach-hhg-128_20425_20952.cyb.fits
#     BASENAME=Skynet_57528_lach-hhg-128_20425_20952
#     SRC_NAME=lach-hhg-128
#     OBSERVER=hhgmadison16_9500
#     DATE_OBS=2016-05-20T16:53:29.870
#        OBSID=20425
#      SCANNUM=20952
#          MJD=57528.7049
#          UTC=60898
#     SCANTYPE=track
#     DATAMODE=HIRES
#     TUNEFREQ=1420.0000
# Actual_FREQ1=1420.0000
# Actual_FREQ2=1420.0000
#    LO1Tuning=6870.000
#     RFFILTER=1355_1435
#        OBSBW=-15.6250
#        NCHAN=1024 
#        FOCUS=37.0709
#           RA=01:35:25.58
#          DEC=62:26:15.51
#      RA(hrs)=1.590400
#     DEC(deg)=62.437600
#    AZIM(deg)=333.231
#    ELEV(deg)=60.367
#     IFattens=10.00, 10.00
#      WARNING=None
#    TCAL_XL1=7.9635
#    TCAL_YR1=9.1340
#    TCAL_XL2=7.9635
#    TCAL_YR2=9.1340
#     TRX_XL1=11.7060
#     TRX_YR1=11.7060
#     TRX_XL2=11.7060
#     TRX_YR2=11.7060
#        TAVE=1.0000
#Freq1(MHz)          XL1          YR1  Freq2(MHz)          XL2          YR2 

   1427.81250     294.8585     284.6084   1427.81250     294.8585     284.6084
   1427.79724     295.7050     284.9654   1427.79724     295.7050     284.9654
   1427.78198     295.7585     286.3588   1427.78198     295.7585     286.3588
   1427.76672     296.8152     286.8528   1427.76672     296.8152     286.8528
   1427.75146     297.3077     287.7974   1427.75146     297.3077     287.7974
   1427.73621     297.9453     289.1735   1427.73621     297.9453     289.1735
   1427.72095     298.9589     290.0798   1427.72095     298.9589     290.0798
   1427.70569     299.4295     291.1827   1427.70569     299.4295     291.1827
   1427.69043     300.6700     292.4962   1427.69043     300.6700     292.4962
   1427.67517     301.4658     292.8210   1427.67517     301.4658     292.8210
   1427.65991     302.2523     294.3785   1427.65991     302.2523     294.3785
   1427.64465     303.2419     295.9011   1427.64465     303.2419     295.9011
   1427.62939     304.8107     297.5410   1427.62939     304.8107     297.5410
   1427.61414     305.5446     299.0898   1427.61414     305.5446     299.0898
   1427.59888     306.3174     300.1551   1427.59888     306.3174     300.1551
   1427.58362     307.1116     301.2307   1427.58362     307.1116     301.2307
   1427.56836     308.7236     302.2225   1427.56836     308.7236     302.2225
   1427.55310     309.7826     304.5402   1427.55310     309.7826     304.5402
   1427.53784     310.9830     305.9456   1427.53784     310.9830     305.9456
   1427.52258     312.5376     307.1234   1427.52258     312.5376     307.1234
   1427.50732     313.6198     308.9572   1427.50732     313.6198     308.9572
   1427.49207     314.5511     310.4085   1427.49207     314.5511     310.4085
   1427.47681     316.1401     312.0788   1427.47681     316.1401     312.0788
   1427.46155     317.1790     314.0672   1427.46155     317.1790     314.0672
   1427.44629     319.7421     315.5208   1427.44629     319.7421     315.5208
   1427.43103     320.4704     317.4183   1427.43103     320.4704     317.4183
   1427.41577     322.0835     319.3436   1427.41577     322.0835     319.3436
   1427.40051     324.1882     321.0646   1427.40051     324.1882     321.0646
   1427.38525     325.7791     322.4670   1427.38525     325.7791     322.4670
   1427.37000     327.4111     324.8393   1427.37000     327.4111     324.8393
   1427.35474     328.6623     326.9809   1427.35474     328.6623     326.9809
   1427.33948     330.4402     328.4505   1427.33948     330.4402     328.4505
   1427.32422     332.3474     330.2966   1427.32422     332.3474     330.2966
   1427.30896     334.8864     332.6427   1427.30896     334.8864     332.6427
   1427.29370     336.0580     334.0622   1427.29370     336.0580     334.0622
   1427.27844     337.6327     336.6901   1427.27844     337.6327     336.6901
   1427.26318     339.8950     338.5306   1427.26318     339.8950     338.5306
   1427.24792     341.5954     341.2104   1427.24792     341.5954     341.2104
   1427.23267     343.3391     343.0369   1427.23267     343.3391     343.0369
   1427.21741     346.1900     345.3427   1427.21741     346.1900     345.3427
   1427.20215     347.3915     347.1069   1427.20215     347.3915     347.1069
   1427.18689     349.9067     349.7798   1427.18689     349.9067     349.7798
   1427.17163     351.7064     352.0477   1427.17163     351.7064     352.0477
   1427.15637     353.8018     354.2452   1427.15637     353.8018     354.2452
   1427.14111     355.6855     356.5241   1427.14111     355.6855     356.5241
   1427.12585     357.9780     358.1069   1427.12585     357.9780     358.1069
   1427.11060     360.8240     360.5181   1427.11060     360.8240     360.5181
   1427.09534     363.1258     363.3347   1427.09534     363.1258     363.3347
   1427.08008     364.9020     365.4887   1427.08008     364.9020     365.4887
   1427.06482     366.7739     368.0827   1427.06482     366.7739     368.0827
   1427.04956     369.7002     370.3775   1427.04956     369.7002     370.3775
   1427.03430     371.9250     372.9889   1427.03430     371.9250     372.9889
   1427.01904     373.3028     374.8778   1427.01904     373.3028     374.8778
   1427.00378     375.9301     377.0530   1427.00378     375.9301     377.0530
   1426.98853     378.4144     379.9534   1426.98853     378.4144     379.9534
   1426.97327     380.6971     382.8885   1426.97327     380.6971     382.8885
   1426.95801     383.7494     384.8092   1426.95801     383.7494     384.8092
   1426.94275     385.6505     387.8589   1426.94275     385.6505     387.8589
   1426.92749     387.2274     390.0154   1426.92749     387.2274     390.0154
   1426.91223     390.5927     392.5843   1426.91223     390.5927     392.5843
   1426.89697     393.1051     395.4650   1426.89697     393.1051     395.4650
   1426.88171     395.0850     398.1275   1426.88171     395.0850     398.1275
   1426.86646     397.4439     400.3150   1426.86646     397.4439     400.3150
   1426.85120     400.4584     402.7287   1426.85120     400.4584     402.7287
   1426.83594     402.4237     406.1167   1426.83594     402.4237     406.1167
   1426.82068     404.5172     407.8453   1426.82068     404.5172     407.8453
   1426.80542     407.4827     410.9158   1426.80542     407.4827     410.9158
   1426.79016     410.3195     412.8473   1426.79016     410.3195     412.8473
   1426.77490     412.5147     415.9257   1426.77490     412.5147     415.9257
   1426.75964     414.6853     418.2827   1426.75964     414.6853     418.2827
   1426.74438     417.7801     421.2346   1426.74438     417.7801     421.2346
   1426.72913     419.7153     423.7474   1426.72913     419.7153     423.7474
   1426.71387     423.0497     425.5527   1426.71387     423.0497     425.5527
   1426.69861     425.3410     428.8310   1426.69861     425.3410     428.8310
   1426.68335     427.8680     430.8080   1426.68335     427.8680     430.8080
   1426.66809     430.2272     433.6814   1426.66809     430.2272     433.6814
   1426.65283     432.8788     435.9189   1426.65283     432.8788     435.9189
   1426.63757     435.4710     439.0725   1426.63757     435.4710     439.0725
   1426.62231     437.9040     443.3518   1426.62231     437.9040     443.3518
   1426.60706     440.4782     444.6175   1426.60706     440.4782     444.6175
   1426.59180     442.7793     446.7435   1426.59180     442.7793     446.7435
   1426.57654     445.9356     449.0794   1426.57654     445.9356     449.0794
   1426.56128     448.4051     451.1745   1426.56128     448.4051     451.1745
   1426.54602     450.6739     453.7969   1426.54602     450.6739     453.7969
   1426.53076     453.1981     456.3961   1426.53076     453.1981     456.3961
   1426.51550     455.8607     459.9643   1426.51550     455.8607     459.9643
   1426.50024     458.5513     461.9371   1426.50024     458.5513     461.9371
   1426.48499     459.9820     464.5081   1426.48499     459.9820     464.5081
   1426.46973     463.6980     466.0366   1426.46973     463.6980     466.0366
   1426.45447     464.6014     470.0969   1426.45447     464.6014     470.0969
   1426.43921     468.3822     471.8623   1426.43921     468.3822     471.8623
   1426.42395     470.9542     474.8764   1426.42395     470.9542     474.8764
   1426.40869     473.3857     476.8629   1426.40869     473.3857     476.8629
   1426.39343     476.6588     479.1584   1426.39343     476.6588     479.1584
   1426.37817     477.8528     480.9852   1426.37817     477.8528     480.9852
   1426.36292     481.0416     484.6039   1426.36292     481.0416     484.6039
   1426.34766     483.1281     486.2319   1426.34766     483.1281     486.2319
   1426.33240     485.5893     488.7941   1426.33240     485.5893     488.7941
   1426.31714     488.1819     491.2159   1426.31714     488.1819     491.2159
   1426.30188     490.4246     494.4911   1426.30188     490.4246     494.4911
   1426.28662     491.7164     496.0281   1426.28662     491.7164     496.0281
   1426.27136     494.2963     498.3470   1426.27136     494.2963     498.3470
   1426.25610     497.1725     500.3011   1426.25610     497.1725     500.3011
   1426.24084     499.0512     502.7296   1426.24084     499.0512     502.7296
   1426.22559     501.7212     504.8922   1426.22559     501.7212     504.8922
   1426.21033     503.9676     507.0432   1426.21033     503.9676     507.0432
   1426.19507     506.6839     510.0779   1426.19507     506.6839     510.0779
   1426.17981     508.6976     512.6658   1426.17981     508.6976     512.6658
   1426.16455     510.3011     513.9205   1426.16455     510.3011     513.9205
   1426.14929     513.1487     516.8282   1426.14929     513.1487     516.8282
   1426.13403     515.0634     518.7133   1426.13403     515.0634     518.7133
   1426.11877     517.3657     521.8769   1426.11877     517.3657     521.8769
   1426.10352     519.1823     522.2170   1426.10352     519.1823     522.2170
   1426.08826     521.8881     525.3269   1426.08826     521.8881     525.3269
   1426.07300     524.4564     528.0286   1426.07300     524.4564     528.0286
   1426.05774     526.5306     529.3363   1426.05774     526.5306     529.3363
   1426.04248     527.8285     531.1570   1426.04248     527.8285     531.1570
   1426.02722     529.3516     532.6135   1426.02722     529.3516     532.6135
   1426.01196     532.5296     536.0857   1426.01196     532.5296     536.0857
   1425.99670     534.3896     538.1966   1425.99670     534.3896     538.1966
   1425.98145     536.2297     540.0160   1425.98145     536.2297     540.0160
   1425.96619     538.3926     540.9807   1425.96619     538.3926     540.9807
   1425.95093     539.6656     543.0374   1425.95093     539.6656     543.0374
   1425.93567     540.7737     545.9804   1425.93567     540.7737     545.9804
   1425.92041     543.2869     546.2932   1425.92041     543.2869     546.2932
   1425.90515     545.2457     550.1268   1425.90515     545.2457     550.1268
   1425.88989     547.5374     550.6939   1425.88989     547.5374     550.6939
   1425.87463     549.6262     552.5238   1425.87463     549.6262     552.5238
   1425.85938     550.5514     554.5217   1425.85938     550.5514     554.5217
   1425.84412     552.6995     556.9802   1425.84412     552.6995     556.9802
   1425.82886     554.3336     558.7319   1425.82886     554.3336     558.7319
   1425.81360     556.0081     560.6429   1425.81360     556.0081     560.6429
   1425.79834     557.6957     562.9454   1425.79834     557.6957     562.9454
   1425.78308     558.5552     564.3071   1425.78308     558.5552     564.3071
   1425.76782     561.0065     565.4927   1425.76782     561.0065     565.4927
   1425.75256     562.6338     567.8781   1425.75256     562.6338     567.8781
   1425.73730     563.8832     569.0386   1425.73730     563.8832     569.0386
   1425.72205     565.7132     570.2174   1425.72205     565.7132     570.2174
   1425.70679     567.1102     571.8542   1425.70679     567.1102     571.8542
   1425.69153     567.8988     573.9697   1425.69153     567.8988     573.9697
   1425.67627     569.8022     575.3035   1425.67627     569.8022     575.3035
   1425.66101     571.8627     576.7382   1425.66101     571.8627     576.7382
   1425.64575     573.9133     578.6616   1425.64575     573.9133     578.6616
   1425.63049     575.1476     579.9418   1425.63049     575.1476     579.9418
   1425.61523     575.7897     582.0306   1425.61523     575.7897     582.0306
   1425.59998     577.0847     582.6366   1425.59998     577.0847     582.6366
   1425.58472     578.4591     584.9755   1425.58472     578.4591     584.9755
   1425.56946     579.2747     586.5423   1425.56946     579.2747     586.5423
   1425.55420     581.2407     586.9896   1425.55420     581.2407     586.9896
   1425.53894     581.5713     588.9382   1425.53894     581.5713     588.9382
   1425.52368     582.2483     589.4811   1425.52368     582.2483     589.4811
   1425.50842     583.9327     591.2200   1425.50842     583.9327     591.2200
   1425.49316     584.4810     592.7452   1425.49316     584.4810     592.7452
   1425.47791     586.6233     594.0904   1425.47791     586.6233     594.0904
   1425.46265     588.0811     594.4612   1425.46265     588.0811     594.4612
   1425.44739     589.1472     596.6851   1425.44739     589.1472     596.6851
   1425.43213     590.6088     598.3933   1425.43213     590.6088     598.3933
   1425.41687     591.5840     598.5318   1425.41687     591.5840     598.5318
   1425.40161     592.1417     601.3307   1425.40161     592.1417     601.3307
   1425.38635     592.4615     601.0455   1425.38635     592.4615     601.0455
   1425.37109     594.0776     601.7403   1425.37109     594.0776     601.7403
   1425.35583     594.4346     603.7477   1425.35583     594.4346     603.7477
   1425.34058     595.6094     604.1740   1425.34058     595.6094     604.1740
   1425.32532     596.5161     606.5714   1425.32532     596.5161     606.5714
   1425.31006     597.8339     607.8350   1425.31006     597.8339     607.8350
   1425.29480     598.2299     608.0857   1425.29480     598.2299     608.0857
   1425.27954     598.5809     609.4130   1425.27954     598.5809     609.4130
   1425.26428     599.5708     610.1163   1425.26428     599.5708     610.1163
   1425.24902     600.8213     610.4614   1425.24902     600.8213     610.4614
   1425.23376     600.9114     612.0831   1425.23376     600.9114     612.0831
   1425.21851     602.1341     613.2374   1425.21851     602.1341     613.2374
   1425.20325     602.0895     614.1127   1425.20325     602.0895     614.1127
   1425.18799     602.9640     614.2871   1425.18799     602.9640     614.2871
   1425.17273     603.1174     615.9918   1425.17273     603.1174     615.9918
   1425.15747     604.5067     616.2478   1425.15747     604.5067     616.2478
   1425.14221     605.7679     617.6356   1425.14221     605.7679     617.6356
   1425.12695     605.2488     618.2088   1425.12695     605.2488     618.2088
   1425.11169     605.9872     620.4119   1425.11169     605.9872     620.4119
   1425.09644     605.5507     619.9623   1425.09644     605.5507     619.9623
   1425.08118     607.4930     621.8037   1425.08118     607.4930     621.8037
   1425.06592     607.6434     621.4908   1425.06592     607.6434     621.4908
   1425.05066     608.9114     622.8624   1425.05066     608.9114     622.8624
   1425.03540     609.5438     622.7863   1425.03540     609.5438     622.7863
   1425.02014     608.7484     623.9440   1425.02014     608.7484     623.9440
   1425.00488     610.3369     624.5645   1425.00488     610.3369     624.5645
   1424.98962     609.7628     626.0684   1424.98962     609.7628     626.0684
   1424.97437     609.7521     626.6295   1424.97437     609.7521     626.6295
   1424.95911     610.8160     626.4598   1424.95911     610.8160     626.4598
   1424.94385     611.3613     627.7963   1424.94385     611.3613     627.7963
   1424.92859     611.1122     628.2187   1424.92859     611.1122     628.2187
   1424.91333     610.5233     628.7443   1424.91333     610.5233     628.7443
   1424.89807     611.4690     629.9354   1424.89807     611.4690     629.9354
   1424.88281     611.9965     630.3702   1424.88281     611.9965     630.3702
   1424.86755     613.2868     631.2828   1424.86755     613.2868     631.2828
   1424.85229     612.3262     631.1985   1424.85229     612.3262     631.1985
   1424.83704     612.3361     630.9488   1424.83704     612.3361     630.9488
   1424.82178     612.6976     631.7364   1424.82178     612.6976     631.7364
   1424.80652     612.7704     632.1364   1424.80652     612.7704     632.1364
   1424.79126     612.4383     632.4064   1424.79126     612.4383     632.4064
   1424.77600     613.1525     633.2140   1424.77600     613.1525     633.2140
   1424.76074     613.3080     635.2424   1424.76074     613.3080     635.2424
   1424.74548     613.1339     634.3644   1424.74548     613.1339     634.3644
   1424.73022     613.1540     635.2414   1424.73022     613.1540     635.2414
   1424.71497     612.6849     635.3631   1424.71497     612.6849     635.3631
   1424.69971     613.1328     635.4095   1424.69971     613.1328     635.4095
   1424.68445     612.9127     635.5362   1424.68445     612.9127     635.5362
   1424.66919     612.1799     636.7483   1424.66919     612.1799     636.7483
   1424.65393     612.9454     636.8018   1424.65393     612.9454     636.8018
   1424.63867     613.9647     637.4818   1424.63867     613.9647     637.4818
   1424.62341     612.3243     636.9125   1424.62341     612.3243     636.9125
   1424.60815     613.3054     638.0873   1424.60815     613.3054     638.0873
   1424.59290     613.1361     637.9317   1424.59290     613.1361     637.9317
   1424.57764     613.3130     637.6615   1424.57764     613.3130     637.6615
   1424.56238     613.4433     638.0529   1424.56238     613.4433     638.0529
   1424.54712     613.7620     638.9030   1424.54712     613.7620     638.9030
   1424.53186     612.8962     638.9216   1424.53186     612.8962     638.9216
   1424.51660     612.1459     639.2753   1424.51660     612.1459     639.2753
   1424.50134     613.2506     639.4539   1424.50134     613.2506     639.4539
   1424.48608     613.1697     640.1443   1424.48608     613.1697     640.1443
   1424.47083     611.9017     639.4024   1424.47083     611.9017     639.4024
   1424.45557     611.7821     638.7840   1424.45557     611.7821     638.7840
   1424.44031     611.3381     640.2661   1424.44031     611.3381     640.2661
   1424.42505     611.6757     639.9218   1424.42505     611.6757     639.9218
   1424.40979     610.4859     640.3085   1424.40979     610.4859     640.3085
   1424.39453     610.5410     640.0667   1424.39453     610.5410     640.0667
   1424.37927     610.1262     640.4623   1424.37927     610.1262     640.4623
   1424.36401     610.7439     640.1224   1424.36401     610.7439     640.1224
   1424.34875     609.9556     640.2665   1424.34875     609.9556     640.2665
   1424.33350     610.1948     639.8718   1424.33350     610.1948     639.8718
   1424.31824     609.8165     640.6891   1424.31824     609.8165     640.6891
   1424.30298     609.4810     639.6390   1424.30298     609.4810     639.6390
   1424.28772     609.7857     640.1768   1424.28772     609.7857     640.1768
   1424.27246     608.8474     640.8420   1424.27246     608.8474     640.8420
   1424.25720     608.9450     639.8794   1424.25720     608.9450     639.8794
   1424.24194     608.6074     640.6733   1424.24194     608.6074     640.6733
   1424.22668     608.2696     640.2597   1424.22668     608.2696     640.2597
   1424.21143     608.1251     640.6669   1424.21143     608.1251     640.6669
   1424.19617     607.3144     640.9207   1424.19617     607.3144     640.9207
   1424.18091     607.0675     640.9193   1424.18091     607.0675     640.9193
   1424.16565     607.5896     640.4915   1424.16565     607.5896     640.4915
