#     FILENAME=!Skynet_57528_lach-hhg-112_20382_20919.cyb.fits
#     BASENAME=Skynet_57528_lach-hhg-112_20382_20919
#     SRC_NAME=lach-hhg-112
#     OBSERVER=hhgmadison16_9500
#     DATE_OBS=2016-05-20T15:47:23.430
#        OBSID=20382
#      SCANNUM=20919
#          MJD=57528.6590
#          UTC=56933
#     SCANTYPE=track
#     DATAMODE=HIRES
#     TUNEFREQ=1420.0000
# Actual_FREQ1=1420.0000
# Actual_FREQ2=1420.0000
#    LO1Tuning=6870.000
#     RFFILTER=1355_1435
#        OBSBW=-15.6250
#        NCHAN=1024 
#        FOCUS=37.0709
#           RA=23:19:39.34
#          DEC=60:54:28.50
#      RA(hrs)=23.327600
#     DEC(deg)=60.907900
#    AZIM(deg)=323.303
#    ELEV(deg)=53.903
#     IFattens=11.00, 10.00
#      WARNING=None
#    TCAL_XL1=7.9635
#    TCAL_YR1=9.1340
#    TCAL_XL2=7.9635
#    TCAL_YR2=9.1340
#     TRX_XL1=11.7060
#     TRX_YR1=11.7060
#     TRX_XL2=11.7060
#     TRX_YR2=11.7060
#        TAVE=1.0000
#Freq1(MHz)          XL1          YR1  Freq2(MHz)          XL2          YR2 

   1427.81250     309.8677     239.8451   1427.81250     309.8677     239.8451
   1427.79724     309.9704     240.2353   1427.79724     309.9704     240.2353
   1427.78198     310.8176     241.2551   1427.78198     310.8176     241.2551
   1427.76672     311.5629     241.9871   1427.76672     311.5629     241.9871
   1427.75146     312.2534     242.8601   1427.75146     312.2534     242.8601
   1427.73621     312.5549     243.2409   1427.73621     312.5549     243.2409
   1427.72095     313.6690     244.2784   1427.72095     313.6690     244.2784
   1427.70569     313.7747     245.1578   1427.70569     313.7747     245.1578
   1427.69043     315.1762     246.2322   1427.69043     315.1762     246.2322
   1427.67517     315.7289     247.1074   1427.67517     315.7289     247.1074
   1427.65991     316.7511     248.2055   1427.65991     316.7511     248.2055
   1427.64465     318.2838     249.4561   1427.64465     318.2838     249.4561
   1427.62939     318.8709     250.2207   1427.62939     318.8709     250.2207
   1427.61414     320.0859     251.1216   1427.61414     320.0859     251.1216
   1427.59888     321.2072     252.1376   1427.59888     321.2072     252.1376
   1427.58362     322.3317     253.2473   1427.58362     322.3317     253.2473
   1427.56836     323.7238     254.5151   1427.56836     323.7238     254.5151
   1427.55310     324.7092     255.4232   1427.55310     324.7092     255.4232
   1427.53784     326.3812     256.8128   1427.53784     326.3812     256.8128
   1427.52258     327.1175     257.9039   1427.52258     327.1175     257.9039
   1427.50732     329.0898     259.3453   1427.50732     329.0898     259.3453
   1427.49207     329.9117     260.9924   1427.49207     329.9117     260.9924
   1427.47681     331.6277     261.9903   1427.47681     331.6277     261.9903
   1427.46155     333.3411     262.9373   1427.46155     333.3411     262.9373
   1427.44629     334.4559     265.1712   1427.44629     334.4559     265.1712
   1427.43103     336.3001     266.2955   1427.43103     336.3001     266.2955
   1427.41577     337.4497     267.4866   1427.41577     337.4497     267.4866
   1427.40051     339.3022     268.5456   1427.40051     339.3022     268.5456
   1427.38525     341.2441     270.1514   1427.38525     341.2441     270.1514
   1427.37000     342.4375     272.0030   1427.37000     342.4375     272.0030
   1427.35474     344.7325     273.3827   1427.35474     344.7325     273.3827
   1427.33948     345.9812     274.9679   1427.33948     345.9812     274.9679
   1427.32422     348.0893     276.7104   1427.32422     348.0893     276.7104
   1427.30896     349.4862     277.7462   1427.30896     349.4862     277.7462
   1427.29370     351.3723     279.4157   1427.29370     351.3723     279.4157
   1427.27844     353.3732     281.1966   1427.27844     353.3732     281.1966
   1427.26318     355.6328     282.4904   1427.26318     355.6328     282.4904
   1427.24792     356.6614     284.5373   1427.24792     356.6614     284.5373
   1427.23267     358.9045     285.6056   1427.23267     358.9045     285.6056
   1427.21741     362.1753     287.5959   1427.21741     362.1753     287.5959
   1427.20215     363.9818     289.2551   1427.20215     363.9818     289.2551
   1427.18689     365.2392     290.8805   1427.18689     365.2392     290.8805
   1427.17163     367.6335     292.6595   1427.17163     367.6335     292.6595
   1427.15637     369.7590     294.3889   1427.15637     369.7590     294.3889
   1427.14111     371.6897     296.4338   1427.14111     371.6897     296.4338
   1427.12585     374.1506     298.0503   1427.12585     374.1506     298.0503
   1427.11060     376.0983     299.6337   1427.11060     376.0983     299.6337
   1427.09534     378.4502     301.4643   1427.09534     378.4502     301.4643
   1427.08008     380.7011     303.4005   1427.08008     380.7011     303.4005
   1427.06482     383.3568     305.3677   1427.06482     383.3568     305.3677
   1427.04956     385.5211     307.2742   1427.04956     385.5211     307.2742
   1427.03430     387.8204     308.4889   1427.03430     387.8204     308.4889
   1427.01904     389.6132     310.6541   1427.01904     389.6132     310.6541
   1427.00378     391.8843     312.8776   1427.00378     391.8843     312.8776
   1426.98853     394.7951     314.2421   1426.98853     394.7951     314.2421
   1426.97327     397.2354     316.2860   1426.97327     397.2354     316.2860
   1426.95801     399.4063     317.6899   1426.95801     399.4063     317.6899
   1426.94275     401.6974     320.0104   1426.94275     401.6974     320.0104
   1426.92749     403.7113     321.5197   1426.92749     403.7113     321.5197
   1426.91223     407.0089     323.3831   1426.91223     407.0089     323.3831
   1426.89697     409.7832     325.7531   1426.89697     409.7832     325.7531
   1426.88171     411.7647     327.5221   1426.88171     411.7647     327.5221
   1426.86646     414.6648     328.9345   1426.86646     414.6648     328.9345
   1426.85120     416.8047     331.0836   1426.85120     416.8047     331.0836
   1426.83594     419.1801     333.4608   1426.83594     419.1801     333.4608
   1426.82068     422.4879     335.1903   1426.82068     422.4879     335.1903
   1426.80542     424.5541     336.6486   1426.80542     424.5541     336.6486
   1426.79016     427.0198     338.6046   1426.79016     427.0198     338.6046
   1426.77490     429.8104     340.4614   1426.77490     429.8104     340.4614
   1426.75964     432.2185     342.5595   1426.75964     432.2185     342.5595
   1426.74438     435.3405     344.1673   1426.74438     435.3405     344.1673
   1426.72913     437.1400     346.1548   1426.72913     437.1400     346.1548
   1426.71387     438.6180     347.9289   1426.71387     438.6180     347.9289
   1426.69861     441.9166     349.6607   1426.69861     441.9166     349.6607
   1426.68335     445.2070     351.4418   1426.68335     445.2070     351.4418
   1426.66809     447.1307     353.2355   1426.66809     447.1307     353.2355
   1426.65283     449.9050     355.4870   1426.65283     449.9050     355.4870
   1426.63757     451.9867     357.3912   1426.63757     451.9867     357.3912
   1426.62231     455.1062     360.1175   1426.62231     455.1062     360.1175
   1426.60706     457.4250     361.1695   1426.60706     457.4250     361.1695
   1426.59180     459.2596     362.6848   1426.59180     459.2596     362.6848
   1426.57654     462.8015     364.8182   1426.57654     462.8015     364.8182
   1426.56128     465.3936     366.1242   1426.56128     465.3936     366.1242
   1426.54602     467.2898     368.3102   1426.54602     467.2898     368.3102
   1426.53076     469.6518     370.2791   1426.53076     469.6518     370.2791
   1426.51550     472.7813     372.0701   1426.51550     472.7813     372.0701
   1426.50024     475.1830     373.3845   1426.50024     475.1830     373.3845
   1426.48499     477.2513     375.2836   1426.48499     477.2513     375.2836
   1426.46973     480.1575     377.2219   1426.46973     480.1575     377.2219
   1426.45447     482.6895     378.8309   1426.45447     482.6895     378.8309
   1426.43921     485.1104     380.4224   1426.43921     485.1104     380.4224
   1426.42395     487.8456     382.7246   1426.42395     487.8456     382.7246
   1426.40869     490.6922     384.5764   1426.40869     490.6922     384.5764
   1426.39343     492.9596     385.5362   1426.39343     492.9596     385.5362
   1426.37817     494.4057     388.3859   1426.37817     494.4057     388.3859
   1426.36292     497.5695     389.3690   1426.36292     497.5695     389.3690
   1426.34766     499.7967     390.7601   1426.34766     499.7967     390.7601
   1426.33240     502.4836     393.0138   1426.33240     502.4836     393.0138
   1426.31714     503.8789     394.4118   1426.31714     503.8789     394.4118
   1426.30188     507.0980     395.8640   1426.30188     507.0980     395.8640
   1426.28662     509.0829     397.2774   1426.28662     509.0829     397.2774
   1426.27136     511.6464     398.7804   1426.27136     511.6464     398.7804
   1426.25610     513.2670     400.9689   1426.25610     513.2670     400.9689
   1426.24084     516.3079     401.9160   1426.24084     516.3079     401.9160
   1426.22559     518.5662     403.5861   1426.22559     518.5662     403.5861
   1426.21033     520.9157     405.1201   1426.21033     520.9157     405.1201
   1426.19507     523.5684     406.0840   1426.19507     523.5684     406.0840
   1426.17981     524.8728     408.7027   1426.17981     524.8728     408.7027
   1426.16455     528.2919     410.1010   1426.16455     528.2919     410.1010
   1426.14929     530.1308     412.0418   1426.14929     530.1308     412.0418
   1426.13403     531.4067     413.2729   1426.13403     531.4067     413.2729
   1426.11877     534.0815     415.2667   1426.11877     534.0815     415.2667
   1426.10352     536.3249     416.2418   1426.10352     536.3249     416.2418
   1426.08826     538.1055     417.7821   1426.08826     538.1055     417.7821
   1426.07300     540.2170     418.1616   1426.07300     540.2170     418.1616
   1426.05774     542.4462     421.0385   1426.05774     542.4462     421.0385
   1426.04248     543.9208     422.2970   1426.04248     543.9208     422.2970
   1426.02722     546.2225     423.4017   1426.02722     546.2225     423.4017
   1426.01196     548.6738     425.3211   1426.01196     548.6738     425.3211
   1425.99670     550.3218     425.9127   1425.99670     550.3218     425.9127
   1425.98145     552.2958     426.9844   1425.98145     552.2958     426.9844
   1425.96619     554.1404     427.7737   1425.96619     554.1404     427.7737
   1425.95093     555.6268     430.7058   1425.95093     555.6268     430.7058
   1425.93567     557.6674     431.8785   1425.93567     557.6674     431.8785
   1425.92041     559.5848     433.0349   1425.92041     559.5848     433.0349
   1425.90515     560.8098     434.0291   1425.90515     560.8098     434.0291
   1425.88989     564.1669     435.4911   1425.88989     564.1669     435.4911
   1425.87463     565.7308     436.7708   1425.87463     565.7308     436.7708
   1425.85938     566.9701     437.8826   1425.85938     566.9701     437.8826
   1425.84412     568.9155     439.1221   1425.84412     568.9155     439.1221
   1425.82886     570.2456     440.3543   1425.82886     570.2456     440.3543
   1425.81360     571.9648     441.8177   1425.81360     571.9648     441.8177
   1425.79834     573.5168     443.5086   1425.79834     573.5168     443.5086
   1425.78308     576.0569     443.8843   1425.78308     576.0569     443.8843
   1425.76782     576.6245     445.2516   1425.76782     576.6245     445.2516
   1425.75256     578.0416     446.4850   1425.75256     578.0416     446.4850
   1425.73730     579.9169     448.0760   1425.73730     579.9169     448.0760
   1425.72205     581.3087     449.2748   1425.72205     581.3087     449.2748
   1425.70679     583.1799     450.0482   1425.70679     583.1799     450.0482
   1425.69153     584.3336     450.7104   1425.69153     584.3336     450.7104
   1425.67627     586.6017     453.0200   1425.67627     586.6017     453.0200
   1425.66101     587.0795     453.7147   1425.66101     587.0795     453.7147
   1425.64575     588.6100     454.3794   1425.64575     588.6100     454.3794
   1425.63049     590.4809     456.4803   1425.63049     590.4809     456.4803
   1425.61523     590.9941     456.8308   1425.61523     590.9941     456.8308
   1425.59998     592.8627     458.0754   1425.59998     592.8627     458.0754
   1425.58472     594.2905     459.5774   1425.58472     594.2905     459.5774
   1425.56946     594.6451     460.8117   1425.56946     594.6451     460.8117
   1425.55420     596.3148     460.9358   1425.55420     596.3148     460.9358
   1425.53894     598.4380     462.5392   1425.53894     598.4380     462.5392
   1425.52368     597.8624     463.1385   1425.52368     597.8624     463.1385
   1425.50842     599.8060     463.2716   1425.50842     599.8060     463.2716
   1425.49316     601.5554     464.6420   1425.49316     601.5554     464.6420
   1425.47791     601.9915     466.6401   1425.47791     601.9915     466.6401
   1425.46265     602.8500     466.6093   1425.46265     602.8500     466.6093
   1425.44739     605.4031     467.4226   1425.44739     605.4031     467.4226
   1425.43213     605.9289     469.1013   1425.43213     605.9289     469.1013
   1425.41687     607.0015     470.4143   1425.41687     607.0015     470.4143
   1425.40161     607.5778     470.4171   1425.40161     607.5778     470.4171
   1425.38635     607.9933     472.2958   1425.38635     607.9933     472.2958
   1425.37109     608.9399     472.4919   1425.37109     608.9399     472.4919
   1425.35583     609.7941     473.5836   1425.35583     609.7941     473.5836
   1425.34058     611.2640     474.6569   1425.34058     611.2640     474.6569
   1425.32532     610.9174     475.2087   1425.32532     610.9174     475.2087
   1425.31006     612.2003     475.7567   1425.31006     612.2003     475.7567
   1425.29480     612.9747     476.8084   1425.29480     612.9747     476.8084
   1425.27954     614.2725     477.8933   1425.27954     614.2725     477.8933
   1425.26428     615.3741     477.9994   1425.26428     615.3741     477.9994
   1425.24902     616.0025     479.8387   1425.24902     616.0025     479.8387
   1425.23376     616.1426     480.3965   1425.23376     616.1426     480.3965
   1425.21851     617.4836     481.6572   1425.21851     617.4836     481.6572
   1425.20325     618.1890     481.5935   1425.20325     618.1890     481.5935
   1425.18799     618.7538     482.3131   1425.18799     618.7538     482.3131
   1425.17273     619.9253     483.3912   1425.17273     619.9253     483.3912
   1425.15747     619.4504     483.7985   1425.15747     619.4504     483.7985
   1425.14221     620.4736     485.4890   1425.14221     620.4736     485.4890
   1425.12695     621.4697     485.4300   1425.12695     621.4697     485.4300
   1425.11169     622.0276     486.2151   1425.11169     622.0276     486.2151
   1425.09644     621.7234     488.0509   1425.09644     621.7234     488.0509
   1425.08118     622.6351     488.1956   1425.08118     622.6351     488.1956
   1425.06592     623.5618     488.6188   1425.06592     623.5618     488.6188
   1425.05066     624.1592     489.7130   1425.05066     624.1592     489.7130
   1425.03540     624.2531     490.1640   1425.03540     624.2531     490.1640
   1425.02014     625.0533     491.0498   1425.02014     625.0533     491.0498
   1425.00488     624.8408     491.7893   1425.00488     624.8408     491.7893
   1424.98962     625.8331     492.6773   1424.98962     625.8331     492.6773
   1424.97437     624.9430     492.2300   1424.97437     624.9430     492.2300
   1424.95911     625.8069     493.4872   1424.95911     625.8069     493.4872
   1424.94385     625.5348     495.0183   1424.94385     625.5348     495.0183
   1424.92859     626.5424     494.2581   1424.92859     626.5424     494.2581
   1424.91333     626.6601     495.3686   1424.91333     626.6601     495.3686
   1424.89807     626.6362     496.1724   1424.89807     626.6362     496.1724
   1424.88281     627.1604     497.1295   1424.88281     627.1604     497.1295
   1424.86755     627.3394     498.4851   1424.86755     627.3394     498.4851
   1424.85229     628.4301     497.4388   1424.85229     628.4301     497.4388
   1424.83704     627.9794     499.0323   1424.83704     627.9794     499.0323
   1424.82178     628.2769     499.0534   1424.82178     628.2769     499.0534
   1424.80652     627.6786     499.3510   1424.80652     627.6786     499.3510
   1424.79126     627.3763     499.5016   1424.79126     627.3763     499.5016
   1424.77600     627.8378     500.5066   1424.77600     627.8378     500.5066
   1424.76074     629.2685     501.1450   1424.76074     629.2685     501.1450
   1424.74548     628.6096     502.1268   1424.74548     628.6096     502.1268
   1424.73022     628.7701     502.3898   1424.73022     628.7701     502.3898
   1424.71497     628.7020     503.0924   1424.71497     628.7020     503.0924
   1424.69971     629.6986     503.5791   1424.69971     629.6986     503.5791
   1424.68445     629.7064     504.2480   1424.68445     629.7064     504.2480
   1424.66919     629.3961     504.3975   1424.66919     629.3961     504.3975
   1424.65393     629.0223     506.0217   1424.65393     629.0223     506.0217
   1424.63867     629.9343     505.7654   1424.63867     629.9343     505.7654
   1424.62341     629.5615     505.5220   1424.62341     629.5615     505.5220
   1424.60815     629.1981     507.0679   1424.60815     629.1981     507.0679
   1424.59290     629.0104     507.2219   1424.59290     629.0104     507.2219
   1424.57764     629.6390     507.7659   1424.57764     629.6390     507.7659
   1424.56238     629.7059     508.5716   1424.56238     629.7059     508.5716
   1424.54712     630.0484     508.9981   1424.54712     630.0484     508.9981
   1424.53186     629.2231     509.0236   1424.53186     629.2231     509.0236
   1424.51660     629.2957     509.5078   1424.51660     629.2957     509.5078
   1424.50134     628.2313     509.1674   1424.50134     628.2313     509.1674
   1424.48608     629.2546     509.8853   1424.48608     629.2546     509.8853
   1424.47083     629.5869     510.7117   1424.47083     629.5869     510.7117
   1424.45557     628.3300     511.4620   1424.45557     628.3300     511.4620
   1424.44031     628.2239     512.3226   1424.44031     628.2239     512.3226
   1424.42505     629.7142     511.5148   1424.42505     629.7142     511.5148
   1424.40979     627.9172     512.2849   1424.40979     627.9172     512.2849
   1424.39453     629.7155     513.3707   1424.39453     629.7155     513.3707
   1424.37927     627.3253     513.7019   1424.37927     627.3253     513.7019
   1424.36401     628.4877     514.3432   1424.36401     628.4877     514.3432
   1424.34875     628.2280     514.2515   1424.34875     628.2280     514.2515
   1424.33350     627.2947     514.7458   1424.33350     627.2947     514.7458
   1424.31824     628.1465     515.0977   1424.31824     628.1465     515.0977
   1424.30298     627.9293     516.1266   1424.30298     627.9293     516.1266
   1424.28772     627.1467     515.1307   1424.28772     627.1467     515.1307
   1424.27246     626.9777     516.3037   1424.27246     626.9777     516.3037
   1424.25720     626.5938     516.6401   1424.25720     626.5938     516.6401
   1424.24194     627.1503     517.1368   1424.24194     627.1503     517.1368
   1424.22668     626.5714     517.4492   1424.22668     626.5714     517.4492
   1424.21143     626.5269     518.3160   1424.21143     626.5269     518.3160
   1424.19617     626.4636     518.1446   1424.19617     626.4636     518.1446
   1424.18091     626.7357     518.6232   1424.18091     626.7357     518.6232
   1424.16565     625.7172     518.5231   1424.16565     625.7172     518.5231
