#     FILENAME=!Skynet_57528_lach-hhg-174_20559_20997.cyb.fits
#     BASENAME=Skynet_57528_lach-hhg-174_20559_20997
#     SRC_NAME=lach-hhg-174
#     OBSERVER=hhgmadison16_9500
#     DATE_OBS=2016-05-20T18:28:04.870
#        OBSID=20559
#      SCANNUM=20997
#          MJD=57528.7705
#          UTC=66573
#     SCANTYPE=track
#     DATAMODE=HIRES
#     TUNEFREQ=1420.0000
# Actual_FREQ1=1420.0000
# Actual_FREQ2=1420.0000
#    LO1Tuning=6870.000
#     RFFILTER=1355_1435
#        OBSBW=-15.6250
#        NCHAN=1024 
#        FOCUS=37.0709
#           RA=05:30:30.15
#          DEC=34:00:18.39
#      RA(hrs)=5.508400
#     DEC(deg)=34.005100
#    AZIM(deg)=126.215
#    ELEV(deg)=82.823
#     IFattens=11.00, 9.00
#      WARNING=None
#    TCAL_XL1=7.9635
#    TCAL_YR1=9.1340
#    TCAL_XL2=7.9635
#    TCAL_YR2=9.1340
#     TRX_XL1=11.7060
#     TRX_YR1=11.7060
#     TRX_XL2=11.7060
#     TRX_YR2=11.7060
#        TAVE=1.0000
#Freq1(MHz)          XL1          YR1  Freq2(MHz)          XL2          YR2 

   1427.81250     383.5577     278.0764   1427.81250     383.5577     278.0764
   1427.79724     383.8242     279.3669   1427.79724     383.8242     279.3669
   1427.78198     384.5523     280.5388   1427.78198     384.5523     280.5388
   1427.76672     385.8452     282.3088   1427.76672     385.8452     282.3088
   1427.75146     385.9801     283.5431   1427.75146     385.9801     283.5431
   1427.73621     386.7575     284.8957   1427.73621     386.7575     284.8957
   1427.72095     388.1942     286.3532   1427.72095     388.1942     286.3532
   1427.70569     388.9594     288.4186   1427.70569     388.9594     288.4186
   1427.69043     389.6931     289.4714   1427.69043     389.6931     289.4714
   1427.67517     389.9511     291.6709   1427.67517     389.9511     291.6709
   1427.65991     391.6696     292.8991   1427.65991     391.6696     292.8991
   1427.64465     393.4077     294.9029   1427.64465     393.4077     294.9029
   1427.62939     394.5038     296.0286   1427.62939     394.5038     296.0286
   1427.61414     395.5780     298.5261   1427.61414     395.5780     298.5261
   1427.59888     397.1802     300.3454   1427.59888     397.1802     300.3454
   1427.58362     398.0514     302.1118   1427.58362     398.0514     302.1118
   1427.56836     399.0064     303.5764   1427.56836     399.0064     303.5764
   1427.55310     400.8854     305.5295   1427.55310     400.8854     305.5295
   1427.53784     402.3322     307.3481   1427.53784     402.3322     307.3481
   1427.52258     404.0587     309.6911   1427.52258     404.0587     309.6911
   1427.50732     405.4715     311.5360   1427.50732     405.4715     311.5360
   1427.49207     407.8130     313.9926   1427.49207     407.8130     313.9926
   1427.47681     408.9679     315.9674   1427.47681     408.9679     315.9674
   1427.46155     411.4149     318.0338   1427.46155     411.4149     318.0338
   1427.44629     412.6420     320.1598   1427.44629     412.6420     320.1598
   1427.43103     415.1544     322.5612   1427.43103     415.1544     322.5612
   1427.41577     416.8479     324.4005   1427.41577     416.8479     324.4005
   1427.40051     418.9100     326.8704   1427.40051     418.9100     326.8704
   1427.38525     420.2340     328.8830   1427.38525     420.2340     328.8830
   1427.37000     422.4952     330.6351   1427.37000     422.4952     330.6351
   1427.35474     424.3665     333.3944   1427.35474     424.3665     333.3944
   1427.33948     426.7216     336.1152   1427.33948     426.7216     336.1152
   1427.32422     429.0464     338.2440   1427.32422     429.0464     338.2440
   1427.30896     431.3621     340.5615   1427.30896     431.3621     340.5615
   1427.29370     433.4819     343.0058   1427.29370     433.4819     343.0058
   1427.27844     435.5319     344.8358   1427.27844     435.5319     344.8358
   1427.26318     437.4223     347.2036   1427.26318     437.4223     347.2036
   1427.24792     440.4788     349.9051   1427.24792     440.4788     349.9051
   1427.23267     442.7361     352.1989   1427.23267     442.7361     352.1989
   1427.21741     445.3631     354.6360   1427.21741     445.3631     354.6360
   1427.20215     447.3084     356.4346   1427.20215     447.3084     356.4346
   1427.18689     450.7284     359.6037   1427.18689     450.7284     359.6037
   1427.17163     452.3072     362.3396   1427.17163     452.3072     362.3396
   1427.15637     455.6022     363.0715   1427.15637     455.6022     363.0715
   1427.14111     457.6253     366.8162   1427.14111     457.6253     366.8162
   1427.12585     459.9836     369.2972   1427.12585     459.9836     369.2972
   1427.11060     462.7667     371.4689   1427.11060     462.7667     371.4689
   1427.09534     465.2730     374.1001   1427.09534     465.2730     374.1001
   1427.08008     468.3046     376.7003   1427.08008     468.3046     376.7003
   1427.06482     470.7101     379.3940   1427.06482     470.7101     379.3940
   1427.04956     473.6358     381.7875   1427.04956     473.6358     381.7875
   1427.03430     476.7377     384.0323   1427.03430     476.7377     384.0323
   1427.01904     479.7263     386.3190   1427.01904     479.7263     386.3190
   1427.00378     482.7175     388.6552   1427.00378     482.7175     388.6552
   1426.98853     484.7740     391.1026   1426.98853     484.7740     391.1026
   1426.97327     488.1415     393.7263   1426.97327     488.1415     393.7263
   1426.95801     491.4203     396.0032   1426.95801     491.4203     396.0032
   1426.94275     493.9447     398.8210   1426.94275     493.9447     398.8210
   1426.92749     496.6142     400.8301   1426.92749     496.6142     400.8301
   1426.91223     500.0136     403.4120   1426.91223     500.0136     403.4120
   1426.89697     502.6085     406.2742   1426.89697     502.6085     406.2742
   1426.88171     505.4269     408.6089   1426.88171     505.4269     408.6089
   1426.86646     508.8655     411.0712   1426.86646     508.8655     411.0712
   1426.85120     512.3483     412.6949   1426.85120     512.3483     412.6949
   1426.83594     514.4598     415.2620   1426.83594     514.4598     415.2620
   1426.82068     518.0648     417.7699   1426.82068     518.0648     417.7699
   1426.80542     520.6390     420.0476   1426.80542     520.6390     420.0476
   1426.79016     523.9561     422.1099   1426.79016     523.9561     422.1099
   1426.77490     527.4503     424.4609   1426.77490     527.4503     424.4609
   1426.75964     529.3209     427.6185   1426.75964     529.3209     427.6185
   1426.74438     533.5475     429.0784   1426.74438     533.5475     429.0784
   1426.72913     536.6392     431.0114   1426.72913     536.6392     431.0114
   1426.71387     539.4379     433.3917   1426.71387     539.4379     433.3917
   1426.69861     541.9371     435.7690   1426.69861     541.9371     435.7690
   1426.68335     545.0874     437.8411   1426.68335     545.0874     437.8411
   1426.66809     549.6176     440.8090   1426.66809     549.6176     440.8090
   1426.65283     552.2792     442.5405   1426.65283     552.2792     442.5405
   1426.63757     554.9001     444.0641   1426.63757     554.9001     444.0641
   1426.62231     559.8217     447.4093   1426.62231     559.8217     447.4093
   1426.60706     561.5165     448.6128   1426.60706     561.5165     448.6128
   1426.59180     564.1750     451.1167   1426.59180     564.1750     451.1167
   1426.57654     568.1554     452.3174   1426.57654     568.1554     452.3174
   1426.56128     570.6833     454.8615   1426.56128     570.6833     454.8615
   1426.54602     574.1211     457.0323   1426.54602     574.1211     457.0323
   1426.53076     576.9680     458.6205   1426.53076     576.9680     458.6205
   1426.51550     580.5717     460.9683   1426.51550     580.5717     460.9683
   1426.50024     583.1051     462.9194   1426.50024     583.1051     462.9194
   1426.48499     586.9808     464.3687   1426.48499     586.9808     464.3687
   1426.46973     589.6741     466.4236   1426.46973     589.6741     466.4236
   1426.45447     592.4863     468.0882   1426.45447     592.4863     468.0882
   1426.43921     595.6976     469.5554   1426.43921     595.6976     469.5554
   1426.42395     598.8657     471.3749   1426.42395     598.8657     471.3749
   1426.40869     602.1024     472.8530   1426.40869     602.1024     472.8530
   1426.39343     605.0393     476.0147   1426.39343     605.0393     476.0147
   1426.37817     607.7131     476.6150   1426.37817     607.7131     476.6150
   1426.36292     610.6840     479.0810   1426.36292     610.6840     479.0810
   1426.34766     613.9130     479.4677   1426.34766     613.9130     479.4677
   1426.33240     616.6240     480.3008   1426.33240     616.6240     480.3008
   1426.31714     620.2891     484.1741   1426.31714     620.2891     484.1741
   1426.30188     623.5942     484.6407   1426.30188     623.5942     484.6407
   1426.28662     625.2271     486.4124   1426.28662     625.2271     486.4124
   1426.27136     628.6410     488.7099   1426.27136     628.6410     488.7099
   1426.25610     630.5232     489.1486   1426.25610     630.5232     489.1486
   1426.24084     632.5814     490.7381   1426.24084     632.5814     490.7381
   1426.22559     636.3226     493.2026   1426.22559     636.3226     493.2026
   1426.21033     640.4556     493.2115   1426.21033     640.4556     493.2115
   1426.19507     642.1859     495.0352   1426.19507     642.1859     495.0352
   1426.17981     645.7198     496.3552   1426.17981     645.7198     496.3552
   1426.16455     648.6936     498.6572   1426.16455     648.6936     498.6572
   1426.14929     651.0107     499.3504   1426.14929     651.0107     499.3504
   1426.13403     654.0585     500.9925   1426.13403     654.0585     500.9925
   1426.11877     656.0673     500.8982   1426.11877     656.0673     500.8982
   1426.10352     659.0805     503.4581   1426.10352     659.0805     503.4581
   1426.08826     661.7786     504.4929   1426.08826     661.7786     504.4929
   1426.07300     664.4876     505.2906   1426.07300     664.4876     505.2906
   1426.05774     667.3803     506.6045   1426.05774     667.3803     506.6045
   1426.04248     669.2159     507.7224   1426.04248     669.2159     507.7224
   1426.02722     671.8949     508.4566   1426.02722     671.8949     508.4566
   1426.01196     675.4196     509.2937   1426.01196     675.4196     509.2937
   1425.99670     677.1970     510.8700   1425.99670     677.1970     510.8700
   1425.98145     680.9181     511.3367   1425.98145     680.9181     511.3367
   1425.96619     682.8727     512.4831   1425.96619     682.8727     512.4831
   1425.95093     684.8146     513.5106   1425.95093     684.8146     513.5106
   1425.93567     685.6182     514.0403   1425.93567     685.6182     514.0403
   1425.92041     689.1039     515.5423   1425.92041     689.1039     515.5423
   1425.90515     693.1625     516.2726   1425.90515     693.1625     516.2726
   1425.88989     693.8592     517.1569   1425.88989     693.8592     517.1569
   1425.87463     695.7327     518.0597   1425.87463     695.7327     518.0597
   1425.85938     697.9280     518.7507   1425.85938     697.9280     518.7507
   1425.84412     701.2333     519.6775   1425.84412     701.2333     519.6775
   1425.82886     702.8151     519.9155   1425.82886     702.8151     519.9155
   1425.81360     705.7583     521.2429   1425.81360     705.7583     521.2429
   1425.79834     706.8718     521.2793   1425.79834     706.8718     521.2793
   1425.78308     709.0164     521.4526   1425.78308     709.0164     521.4526
   1425.76782     710.8732     522.4938   1425.76782     710.8732     522.4938
   1425.75256     714.1592     523.3397   1425.75256     714.1592     523.3397
   1425.73730     715.7500     523.4470   1425.73730     715.7500     523.4470
   1425.72205     717.7310     525.0826   1425.72205     717.7310     525.0826
   1425.70679     719.2153     525.0840   1425.70679     719.2153     525.0840
   1425.69153     722.1973     525.9332   1425.69153     722.1973     525.9332
   1425.67627     722.9796     526.5703   1425.67627     722.9796     526.5703
   1425.66101     725.0880     525.9366   1425.66101     725.0880     525.9366
   1425.64575     726.5822     527.2374   1425.64575     726.5822     527.2374
   1425.63049     728.4327     527.5182   1425.63049     728.4327     527.5182
   1425.61523     730.4926     527.9141   1425.61523     730.4926     527.9141
   1425.59998     732.1408     528.6146   1425.59998     732.1408     528.6146
   1425.58472     733.1652     528.5905   1425.58472     733.1652     528.5905
   1425.56946     734.1090     529.6502   1425.56946     734.1090     529.6502
   1425.55420     737.1038     530.5558   1425.55420     737.1038     530.5558
   1425.53894     737.2795     530.8231   1425.53894     737.2795     530.8231
   1425.52368     739.6340     530.1875   1425.52368     739.6340     530.1875
   1425.50842     741.9504     530.5143   1425.50842     741.9504     530.5143
   1425.49316     743.0602     530.9406   1425.49316     743.0602     530.9406
   1425.47791     745.1465     530.8173   1425.47791     745.1465     530.8173
   1425.46265     743.9284     530.6583   1425.46265     743.9284     530.6583
   1425.44739     746.5940     531.6030   1425.44739     746.5940     531.6030
   1425.43213     747.9888     531.0654   1425.43213     747.9888     531.0654
   1425.41687     751.1270     531.8015   1425.41687     751.1270     531.8015
   1425.40161     752.3021     531.8904   1425.40161     752.3021     531.8904
   1425.38635     751.4622     531.7197   1425.38635     751.4622     531.7197
   1425.37109     753.8943     531.7069   1425.37109     753.8943     531.7069
   1425.35583     753.4073     532.2498   1425.35583     753.4073     532.2498
   1425.34058     755.3298     532.6104   1425.34058     755.3298     532.6104
   1425.32532     756.0831     532.3741   1425.32532     756.0831     532.3741
   1425.31006     758.0576     532.2830   1425.31006     758.0576     532.2830
   1425.29480     759.8583     532.4086   1425.29480     759.8583     532.4086
   1425.27954     760.2042     532.7510   1425.27954     760.2042     532.7510
   1425.26428     760.6625     532.5778   1425.26428     760.6625     532.5778
   1425.24902     761.4133     532.8010   1425.24902     761.4133     532.8010
   1425.23376     763.4261     532.7813   1425.23376     763.4261     532.7813
   1425.21851     764.3158     532.8766   1425.21851     764.3158     532.8766
   1425.20325     765.7377     532.3015   1425.20325     765.7377     532.3015
   1425.18799     765.7573     532.4650   1425.18799     765.7573     532.4650
   1425.17273     765.9915     532.3372   1425.17273     765.9915     532.3372
   1425.15747     766.5081     532.3103   1425.15747     766.5081     532.3103
   1425.14221     767.3643     532.4636   1425.14221     767.3643     532.4636
   1425.12695     767.8555     532.0474   1425.12695     767.8555     532.0474
   1425.11169     768.9075     532.3997   1425.11169     768.9075     532.3997
   1425.09644     769.7416     532.3126   1425.09644     769.7416     532.3126
   1425.08118     769.9001     531.5173   1425.08118     769.9001     531.5173
   1425.06592     770.6042     530.9104   1425.06592     770.6042     530.9104
   1425.05066     771.0444     530.8778   1425.05066     771.0444     530.8778
   1425.03540     772.5464     531.1797   1425.03540     772.5464     531.1797
   1425.02014     772.4359     530.4557   1425.02014     772.4359     530.4557
   1425.00488     773.0639     530.3701   1425.00488     773.0639     530.3701
   1424.98962     773.8383     530.7998   1424.98962     773.8383     530.7998
   1424.97437     774.0142     530.9392   1424.97437     774.0142     530.9392
   1424.95911     774.8967     530.4812   1424.95911     774.8967     530.4812
   1424.94385     775.0679     529.4024   1424.94385     775.0679     529.4024
   1424.92859     776.2112     529.3604   1424.92859     776.2112     529.3604
   1424.91333     775.7356     529.4865   1424.91333     775.7356     529.4865
   1424.89807     777.0240     529.5639   1424.89807     777.0240     529.5639
   1424.88281     776.4547     528.8568   1424.88281     776.4547     528.8568
   1424.86755     776.5427     527.9336   1424.86755     776.5427     527.9336
   1424.85229     776.9174     528.0837   1424.85229     776.9174     528.0837
   1424.83704     776.9531     527.8446   1424.83704     776.9531     527.8446
   1424.82178     775.9533     527.7491   1424.82178     775.9533     527.7491
   1424.80652     776.4636     526.6113   1424.80652     776.4636     526.6113
   1424.79126     777.0329     526.3526   1424.79126     777.0329     526.3526
   1424.77600     778.0245     526.7762   1424.77600     778.0245     526.7762
   1424.76074     779.1521     525.9241   1424.76074     779.1521     525.9241
   1424.74548     778.8539     525.5677   1424.74548     778.8539     525.5677
   1424.73022     778.8910     524.8773   1424.73022     778.8910     524.8773
   1424.71497     777.9499     524.5046   1424.71497     777.9499     524.5046
   1424.69971     778.4758     524.2744   1424.69971     778.4758     524.2744
   1424.68445     777.6425     523.7339   1424.68445     777.6425     523.7339
   1424.66919     778.3841     524.3647   1424.66919     778.3841     524.3647
   1424.65393     777.7654     523.4140   1424.65393     777.7654     523.4140
   1424.63867     778.0248     522.9089   1424.63867     778.0248     522.9089
   1424.62341     778.9103     522.5939   1424.62341     778.9103     522.5939
   1424.60815     777.4879     522.6248   1424.60815     777.4879     522.6248
   1424.59290     777.0477     521.7589   1424.59290     777.0477     521.7589
   1424.57764     778.2859     521.0014   1424.57764     778.2859     521.0014
   1424.56238     778.2997     520.6482   1424.56238     778.2997     520.6482
   1424.54712     776.8518     520.6502   1424.54712     776.8518     520.6502
   1424.53186     778.2561     520.0892   1424.53186     778.2561     520.0892
   1424.51660     778.7568     519.4777   1424.51660     778.7568     519.4777
   1424.50134     776.4095     519.7933   1424.50134     776.4095     519.7933
   1424.48608     777.7903     518.2766   1424.48608     777.7903     518.2766
   1424.47083     776.5925     518.0174   1424.47083     776.5925     518.0174
   1424.45557     775.7675     516.9153   1424.45557     775.7675     516.9153
   1424.44031     777.2999     516.1799   1424.44031     777.2999     516.1799
   1424.42505     775.6814     516.8823   1424.42505     775.6814     516.8823
   1424.40979     776.2601     515.7828   1424.40979     776.2601     515.7828
   1424.39453     775.2891     515.2991   1424.39453     775.2891     515.2991
   1424.37927     774.8242     514.2462   1424.37927     774.8242     514.2462
   1424.36401     775.6281     515.0420   1424.36401     775.6281     515.0420
   1424.34875     775.0043     513.4853   1424.34875     775.0043     513.4853
   1424.33350     775.4529     513.5458   1424.33350     775.4529     513.5458
   1424.31824     774.8416     512.8231   1424.31824     774.8416     512.8231
   1424.30298     774.6452     513.1245   1424.30298     774.6452     513.1245
   1424.28772     774.4060     511.9955   1424.28772     774.4060     511.9955
   1424.27246     774.6563     511.3444   1424.27246     774.6563     511.3444
   1424.25720     773.9755     510.3196   1424.25720     773.9755     510.3196
   1424.24194     771.9200     509.6836   1424.24194     771.9200     509.6836
   1424.22668     772.8278     509.7666   1424.22668     772.8278     509.7666
   1424.21143     772.0650     509.2031   1424.21143     772.0650     509.2031
   1424.19617     773.1320     508.8654   1424.19617     773.1320     508.8654
   1424.18091     771.6492     507.5141   1424.18091     771.6492     507.5141
   1424.16565     772.0483     507.4356   1424.16565     772.0483     507.4356
