#     FILENAME=!Skynet_57528_lach-hhg-146_20479_20970.cyb.fits
#     BASENAME=Skynet_57528_lach-hhg-146_20479_20970
#     SRC_NAME=lach-hhg-146
#     OBSERVER=hhgmadison16_9500
#     DATE_OBS=2016-05-20T17:29:34.750
#        OBSID=20479
#      SCANNUM=20970
#          MJD=57528.7299
#          UTC=63064
#     SCANTYPE=track
#     DATAMODE=HIRES
#     TUNEFREQ=1420.0000
# Actual_FREQ1=1420.0000
# Actual_FREQ2=1420.0000
#    LO1Tuning=6870.000
#     RFFILTER=1355_1435
#        OBSBW=-15.6250
#        NCHAN=1024 
#        FOCUS=37.0709
#           RA=03:43:35.76
#          DEC=54:58:02.32
#      RA(hrs)=3.726600
#     DEC(deg)=54.967300
#    AZIM(deg)=349.342
#    ELEV(deg)=72.977
#     IFattens=10.00, 9.00
#      WARNING=None
#    TCAL_XL1=7.9635
#    TCAL_YR1=9.1340
#    TCAL_XL2=7.9635
#    TCAL_YR2=9.1340
#     TRX_XL1=11.7060
#     TRX_YR1=11.7060
#     TRX_XL2=11.7060
#     TRX_YR2=11.7060
#        TAVE=1.0000
#Freq1(MHz)          XL1          YR1  Freq2(MHz)          XL2          YR2 

   1427.81250     378.5492     329.0345   1427.81250     378.5492     329.0345
   1427.79724     379.3263     330.7366   1427.79724     379.3263     330.7366
   1427.78198     379.8890     331.8478   1427.78198     379.8890     331.8478
   1427.76672     380.7424     333.4166   1427.76672     380.7424     333.4166
   1427.75146     381.4660     334.7204   1427.75146     381.4660     334.7204
   1427.73621     382.0148     336.2633   1427.73621     382.0148     336.2633
   1427.72095     382.8695     337.5812   1427.72095     382.8695     337.5812
   1427.70569     384.0769     339.3471   1427.70569     384.0769     339.3471
   1427.69043     385.0828     340.9983   1427.69043     385.0828     340.9983
   1427.67517     386.4574     342.1920   1427.67517     386.4574     342.1920
   1427.65991     387.2774     344.0116   1427.65991     387.2774     344.0116
   1427.64465     388.8195     345.4630   1427.64465     388.8195     345.4630
   1427.62939     389.7373     347.1175   1427.62939     389.7373     347.1175
   1427.61414     390.6320     348.7798   1427.61414     390.6320     348.7798
   1427.59888     392.1585     350.7727   1427.59888     392.1585     350.7727
   1427.58362     393.8622     352.5678   1427.58362     393.8622     352.5678
   1427.56836     395.6910     354.0973   1427.56836     395.6910     354.0973
   1427.55310     396.6822     355.6702   1427.55310     396.6822     355.6702
   1427.53784     398.3819     358.2819   1427.53784     398.3819     358.2819
   1427.52258     399.8980     360.1713   1427.52258     399.8980     360.1713
   1427.50732     401.8352     362.1709   1427.50732     401.8352     362.1709
   1427.49207     403.8237     363.6060   1427.49207     403.8237     363.6060
   1427.47681     404.9518     366.0107   1427.47681     404.9518     366.0107
   1427.46155     406.7891     368.3459   1427.46155     406.7891     368.3459
   1427.44629     408.0295     369.0418   1427.44629     408.0295     369.0418
   1427.43103     410.7887     371.1925   1427.43103     410.7887     371.1925
   1427.41577     412.5562     374.1594   1427.41577     412.5562     374.1594
   1427.40051     413.9963     375.5590   1427.40051     413.9963     375.5590
   1427.38525     416.7838     377.7943   1427.38525     416.7838     377.7943
   1427.37000     418.3087     379.5272   1427.37000     418.3087     379.5272
   1427.35474     420.4976     381.2030   1427.35474     420.4976     381.2030
   1427.33948     422.8954     383.1005   1427.33948     422.8954     383.1005
   1427.32422     424.9289     385.8807   1427.32422     424.9289     385.8807
   1427.30896     427.6289     387.9346   1427.30896     427.6289     387.9346
   1427.29370     429.2792     390.4102   1427.29370     429.2792     390.4102
   1427.27844     431.6990     391.6685   1427.27844     431.6990     391.6685
   1427.26318     433.8545     394.0740   1427.26318     433.8545     394.0740
   1427.24792     436.5721     396.4168   1427.24792     436.5721     396.4168
   1427.23267     439.1329     399.0891   1427.23267     439.1329     399.0891
   1427.21741     441.8256     400.9788   1427.21741     441.8256     400.9788
   1427.20215     443.8233     403.0334   1427.20215     443.8233     403.0334
   1427.18689     446.1918     405.5145   1427.18689     446.1918     405.5145
   1427.17163     448.8406     407.3831   1427.17163     448.8406     407.3831
   1427.15637     451.3050     409.6902   1427.15637     451.3050     409.6902
   1427.14111     454.1751     411.8005   1427.14111     454.1751     411.8005
   1427.12585     456.7678     413.4799   1427.12585     456.7678     413.4799
   1427.11060     459.3016     416.4422   1427.11060     459.3016     416.4422
   1427.09534     462.2985     418.5603   1427.09534     462.2985     418.5603
   1427.08008     465.7052     420.3962   1427.08008     465.7052     420.3962
   1427.06482     467.3615     422.4709   1427.06482     467.3615     422.4709
   1427.04956     470.4087     424.4743   1427.04956     470.4087     424.4743
   1427.03430     474.3429     427.1654   1427.03430     474.3429     427.1654
   1427.01904     476.8658     429.3582   1427.01904     476.8658     429.3582
   1427.00378     478.9338     431.6176   1427.00378     478.9338     431.6176
   1426.98853     481.7557     434.4821   1426.98853     481.7557     434.4821
   1426.97327     485.7328     435.9015   1426.97327     485.7328     435.9015
   1426.95801     487.7646     438.5053   1426.95801     487.7646     438.5053
   1426.94275     491.1020     439.6027   1426.94275     491.1020     439.6027
   1426.92749     494.0962     442.7991   1426.92749     494.0962     442.7991
   1426.91223     496.9471     444.0329   1426.91223     496.9471     444.0329
   1426.89697     499.8341     447.0619   1426.89697     499.8341     447.0619
   1426.88171     502.5030     449.0143   1426.88171     502.5030     449.0143
   1426.86646     505.0287     450.4966   1426.86646     505.0287     450.4966
   1426.85120     508.8036     452.8541   1426.85120     508.8036     452.8541
   1426.83594     511.1637     455.8096   1426.83594     511.1637     455.8096
   1426.82068     514.5770     457.4979   1426.82068     514.5770     457.4979
   1426.80542     518.2362     460.0160   1426.80542     518.2362     460.0160
   1426.79016     521.2987     461.9694   1426.79016     521.2987     461.9694
   1426.77490     524.7427     463.5676   1426.77490     524.7427     463.5676
   1426.75964     526.1176     465.5788   1426.75964     526.1176     465.5788
   1426.74438     530.8643     467.9284   1426.74438     530.8643     467.9284
   1426.72913     534.4647     469.6113   1426.72913     534.4647     469.6113
   1426.71387     536.4725     470.9600   1426.71387     536.4725     470.9600
   1426.69861     539.3691     474.1662   1426.69861     539.3691     474.1662
   1426.68335     542.0159     475.8679   1426.68335     542.0159     475.8679
   1426.66809     546.6334     477.9059   1426.66809     546.6334     477.9059
   1426.65283     549.3301     480.1648   1426.65283     549.3301     480.1648
   1426.63757     552.1228     481.5184   1426.63757     552.1228     481.5184
   1426.62231     556.1008     485.3310   1426.62231     556.1008     485.3310
   1426.60706     559.2072     485.2582   1426.60706     559.2072     485.2582
   1426.59180     562.0883     487.5015   1426.59180     562.0883     487.5015
   1426.57654     564.6142     489.4416   1426.57654     564.6142     489.4416
   1426.56128     569.3008     491.4725   1426.56128     569.3008     491.4725
   1426.54602     571.6635     493.5285   1426.54602     571.6635     493.5285
   1426.53076     574.8432     495.1655   1426.53076     574.8432     495.1655
   1426.51550     577.1235     496.9169   1426.51550     577.1235     496.9169
   1426.50024     581.4000     499.2470   1426.50024     581.4000     499.2470
   1426.48499     583.5219     500.3787   1426.48499     583.5219     500.3787
   1426.46973     587.8358     502.4991   1426.46973     587.8358     502.4991
   1426.45447     589.8441     504.1757   1426.45447     589.8441     504.1757
   1426.43921     592.2240     505.8611   1426.43921     592.2240     505.8611
   1426.42395     596.5811     508.1266   1426.42395     596.5811     508.1266
   1426.40869     600.3875     509.7654   1426.40869     600.3875     509.7654
   1426.39343     602.7207     511.2470   1426.39343     602.7207     511.2470
   1426.37817     605.8304     512.5732   1426.37817     605.8304     512.5732
   1426.36292     608.6643     513.9481   1426.36292     608.6643     513.9481
   1426.34766     611.3382     516.0136   1426.34766     611.3382     516.0136
   1426.33240     614.8548     517.3522   1426.33240     614.8548     517.3522
   1426.31714     618.1667     519.3879   1426.31714     618.1667     519.3879
   1426.30188     621.6206     520.9821   1426.30188     621.6206     520.9821
   1426.28662     623.6639     522.7733   1426.28662     623.6639     522.7733
   1426.27136     626.6453     524.2064   1426.27136     626.6453     524.2064
   1426.25610     630.1771     524.9810   1426.25610     630.1771     524.9810
   1426.24084     632.5360     527.5979   1426.24084     632.5360     527.5979
   1426.22559     635.4413     528.4834   1426.22559     635.4413     528.4834
   1426.21033     638.8555     529.8585   1426.21033     638.8555     529.8585
   1426.19507     641.8737     531.0578   1426.19507     641.8737     531.0578
   1426.17981     643.4559     533.4065   1426.17981     643.4559     533.4065
   1426.16455     646.3286     535.3972   1426.16455     646.3286     535.3972
   1426.14929     650.3621     536.3208   1426.14929     650.3621     536.3208
   1426.13403     651.9169     537.6414   1426.13403     651.9169     537.6414
   1426.11877     655.7418     539.1141   1426.11877     655.7418     539.1141
   1426.10352     657.6815     539.9459   1426.10352     657.6815     539.9459
   1426.08826     660.5575     541.4688   1426.08826     660.5575     541.4688
   1426.07300     662.8511     542.3821   1426.07300     662.8511     542.3821
   1426.05774     666.5769     545.0726   1426.05774     666.5769     545.0726
   1426.04248     669.2854     545.2670   1426.04248     669.2854     545.2670
   1426.02722     671.1640     547.0223   1426.02722     671.1640     547.0223
   1426.01196     673.7732     548.9457   1426.01196     673.7732     548.9457
   1425.99670     676.1266     549.6457   1425.99670     676.1266     549.6457
   1425.98145     679.5633     550.9067   1425.98145     679.5633     550.9067
   1425.96619     681.4047     551.5472   1425.96619     681.4047     551.5472
   1425.95093     683.6703     552.4930   1425.95093     683.6703     552.4930
   1425.93567     686.6151     554.6361   1425.93567     686.6151     554.6361
   1425.92041     688.5448     556.5182   1425.92041     688.5448     556.5182
   1425.90515     690.9069     557.0286   1425.90515     690.9069     557.0286
   1425.88989     694.1974     557.7708   1425.88989     694.1974     557.7708
   1425.87463     694.3597     559.4219   1425.87463     694.3597     559.4219
   1425.85938     697.1581     559.5161   1425.85938     697.1581     559.5161
   1425.84412     700.9970     561.3812   1425.84412     700.9970     561.3812
   1425.82886     703.8846     562.0397   1425.82886     703.8846     562.0397
   1425.81360     705.9439     563.3736   1425.81360     705.9439     563.3736
   1425.79834     707.5878     565.7720   1425.79834     707.5878     565.7720
   1425.78308     709.6196     565.6577   1425.78308     709.6196     565.6577
   1425.76782     711.1548     566.4688   1425.76782     711.1548     566.4688
   1425.75256     714.1655     567.5414   1425.75256     714.1655     567.5414
   1425.73730     716.5681     568.9129   1425.73730     716.5681     568.9129
   1425.72205     718.5691     569.2893   1425.72205     718.5691     569.2893
   1425.70679     719.3799     571.1801   1425.70679     719.3799     571.1801
   1425.69153     721.3459     572.1694   1425.69153     721.3459     572.1694
   1425.67627     724.7073     572.9587   1425.67627     724.7073     572.9587
   1425.66101     725.9753     573.8445   1425.66101     725.9753     573.8445
   1425.64575     726.9938     574.4418   1425.64575     726.9938     574.4418
   1425.63049     728.1555     575.7113   1425.63049     728.1555     575.7113
   1425.61523     731.2734     577.0829   1425.61523     731.2734     577.0829
   1425.59998     731.9172     577.7413   1425.59998     731.9172     577.7413
   1425.58472     733.7564     578.7220   1425.58472     733.7564     578.7220
   1425.56946     736.1544     579.4030   1425.56946     736.1544     579.4030
   1425.55420     737.6544     579.5744   1425.55420     737.6544     579.5744
   1425.53894     740.2318     580.3560   1425.53894     740.2318     580.3560
   1425.52368     742.5061     581.6714   1425.52368     742.5061     581.6714
   1425.50842     741.6740     582.3185   1425.50842     741.6740     582.3185
   1425.49316     744.3097     583.3872   1425.49316     744.3097     583.3872
   1425.47791     744.5602     583.4464   1425.47791     744.5602     583.4464
   1425.46265     746.4938     585.1128   1425.46265     746.4938     585.1128
   1425.44739     749.1394     585.0939   1425.44739     749.1394     585.0939
   1425.43213     750.4288     586.6566   1425.43213     750.4288     586.6566
   1425.41687     752.4489     586.8809   1425.41687     752.4489     586.8809
   1425.40161     753.1534     588.0291   1425.40161     753.1534     588.0291
   1425.38635     754.7004     587.8457   1425.38635     754.7004     587.8457
   1425.37109     755.7759     588.2069   1425.37109     755.7759     588.2069
   1425.35583     757.1011     588.8518   1425.35583     757.1011     588.8518
   1425.34058     757.5148     590.1332   1425.34058     757.5148     590.1332
   1425.32532     758.2097     590.7344   1425.32532     758.2097     590.7344
   1425.31006     760.5350     591.4512   1425.31006     760.5350     591.4512
   1425.29480     760.9139     592.8228   1425.29480     760.9139     592.8228
   1425.27954     761.9085     592.0413   1425.27954     761.9085     592.0413
   1425.26428     762.6567     592.6151   1425.26428     762.6567     592.6151
   1425.24902     763.7323     594.4364   1425.24902     763.7323     594.4364
   1425.23376     764.3223     594.1569   1425.23376     764.3223     594.1569
   1425.21851     766.9958     595.0464   1425.21851     766.9958     595.0464
   1425.20325     766.4316     595.9303   1425.20325     766.4316     595.9303
   1425.18799     766.5641     595.1397   1425.18799     766.5641     595.1397
   1425.17273     767.9288     596.7177   1425.17273     767.9288     596.7177
   1425.15747     768.8131     598.6270   1425.15747     768.8131     598.6270
   1425.14221     769.9736     596.6948   1425.14221     769.9736     596.6948
   1425.12695     770.8989     597.2603   1425.12695     770.8989     597.2603
   1425.11169     770.8160     599.3115   1425.11169     770.8160     599.3115
   1425.09644     770.9515     599.4418   1425.09644     770.9515     599.4418
   1425.08118     772.6542     599.0975   1425.08118     772.6542     599.0975
   1425.06592     773.7297     599.9065   1425.06592     773.7297     599.9065
   1425.05066     774.0031     600.8326   1425.05066     774.0031     600.8326
   1425.03540     773.4598     601.5835   1425.03540     773.4598     601.5835
   1425.02014     776.4096     601.2634   1425.02014     776.4096     601.2634
   1425.00488     776.5627     602.7792   1425.00488     776.5627     602.7792
   1424.98962     776.1182     601.9671   1424.98962     776.1182     601.9671
   1424.97437     776.9481     602.8829   1424.97437     776.9481     602.8829
   1424.95911     777.1613     602.2114   1424.95911     777.1613     602.2114
   1424.94385     778.6932     603.3344   1424.94385     778.6932     603.3344
   1424.92859     778.5002     604.1111   1424.92859     778.5002     604.1111
   1424.91333     779.0107     605.2369   1424.91333     779.0107     605.2369
   1424.89807     778.9242     604.9396   1424.89807     778.9242     604.9396
   1424.88281     778.5416     604.4750   1424.88281     778.5416     604.4750
   1424.86755     778.5698     605.5629   1424.86755     778.5698     605.5629
   1424.85229     778.6425     604.1017   1424.85229     778.6425     604.1017
   1424.83704     780.2841     605.5086   1424.83704     780.2841     605.5086
   1424.82178     779.9181     606.8325   1424.82178     779.9181     606.8325
   1424.80652     779.5347     606.8159   1424.80652     779.5347     606.8159
   1424.79126     779.7395     606.7352   1424.79126     779.7395     606.7352
   1424.77600     780.1843     608.0605   1424.77600     780.1843     608.0605
   1424.76074     780.5867     607.2871   1424.76074     780.5867     607.2871
   1424.74548     779.9609     607.6372   1424.74548     779.9609     607.6372
   1424.73022     780.6895     608.5105   1424.73022     780.6895     608.5105
   1424.71497     779.9750     607.9295   1424.71497     779.9750     607.9295
   1424.69971     780.2441     609.1475   1424.69971     780.2441     609.1475
   1424.68445     779.0728     608.7072   1424.68445     779.0728     608.7072
   1424.66919     780.0131     609.5117   1424.66919     780.0131     609.5117
   1424.65393     780.0792     608.8318   1424.65393     780.0792     608.8318
   1424.63867     780.0403     609.7061   1424.63867     780.0403     609.7061
   1424.62341     780.0792     610.0148   1424.62341     780.0792     610.0148
   1424.60815     780.8887     609.2134   1424.60815     780.8887     609.2134
   1424.59290     781.3820     610.2268   1424.59290     781.3820     610.2268
   1424.57764     779.4509     610.3213   1424.57764     779.4509     610.3213
   1424.56238     780.4225     610.3812   1424.56238     780.4225     610.3812
   1424.54712     780.5050     610.0870   1424.54712     780.5050     610.0870
   1424.53186     779.4088     610.6796   1424.53186     779.4088     610.6796
   1424.51660     779.0796     610.6721   1424.51660     779.0796     610.6721
   1424.50134     779.3110     610.1113   1424.50134     779.3110     610.1113
   1424.48608     778.1306     611.5114   1424.48608     778.1306     611.5114
   1424.47083     777.5624     610.9886   1424.47083     777.5624     610.9886
   1424.45557     778.6594     610.7901   1424.45557     778.6594     610.7901
   1424.44031     778.4171     611.3157   1424.44031     778.4171     611.3157
   1424.42505     778.2680     611.5614   1424.42505     778.2680     611.5614
   1424.40979     777.6879     612.1038   1424.40979     777.6879     612.1038
   1424.39453     778.1465     611.3438   1424.39453     778.1465     611.3438
   1424.37927     774.5067     611.5023   1424.37927     774.5067     611.5023
   1424.36401     777.3490     612.3694   1424.36401     777.3490     612.3694
   1424.34875     776.0502     611.8649   1424.34875     776.0502     611.8649
   1424.33350     774.4271     611.8474   1424.33350     774.4271     611.8474
   1424.31824     774.6715     611.9103   1424.31824     774.6715     611.9103
   1424.30298     774.0775     612.1259   1424.30298     774.0775     612.1259
   1424.28772     773.7670     612.7004   1424.28772     773.7670     612.7004
   1424.27246     774.4722     611.7029   1424.27246     774.4722     611.7029
   1424.25720     773.7668     611.6487   1424.25720     773.7668     611.6487
   1424.24194     771.7767     612.0956   1424.24194     771.7767     612.0956
   1424.22668     773.2083     611.8144   1424.22668     773.2083     611.8144
   1424.21143     772.7188     610.8305   1424.21143     772.7188     610.8305
   1424.19617     772.2410     611.3087   1424.19617     772.2410     611.3087
   1424.18091     772.2724     611.5242   1424.18091     772.2724     611.5242
   1424.16565     771.3700     612.0462   1424.16565     771.3700     612.0462
