#     FILENAME=!Skynet_57528_lachhhg91_20320_20898.cyb.fits
#     BASENAME=Skynet_57528_lachhhg91_20320_20898
#     SRC_NAME=lachhhg91
#     OBSERVER=hhgmadison16_9500
#     DATE_OBS=2016-05-20T15:05:50.680
#        OBSID=20320
#      SCANNUM=20898
#          MJD=57528.6301
#          UTC=54439
#     SCANTYPE=track
#     DATAMODE=HIRES
#     TUNEFREQ=1420.0000
# Actual_FREQ1=1420.0000
# Actual_FREQ2=1420.0000
#    LO1Tuning=6870.000
#     RFFILTER=1355_1435
#        OBSBW=-15.6250
#        NCHAN=1024 
#        FOCUS=37.0709
#           RA=21:16:13.43
#          DEC=49:03:11.26
#      RA(hrs)=21.270400
#     DEC(deg)=49.053100
#    AZIM(deg)=305.010
#    ELEV(deg)=42.520
#     IFattens=10.00, 9.00
#      WARNING=None
#    TCAL_XL1=7.9635
#    TCAL_YR1=9.1340
#    TCAL_XL2=7.9635
#    TCAL_YR2=9.1340
#     TRX_XL1=11.7060
#     TRX_YR1=11.7060
#     TRX_XL2=11.7060
#     TRX_YR2=11.7060
#        TAVE=1.0000
#Freq1(MHz)          XL1          YR1  Freq2(MHz)          XL2          YR2 

   1427.81250     360.7376     284.2249   1427.81250     360.7376     284.2249
   1427.79724     361.1356     284.7356   1427.79724     361.1356     284.7356
   1427.78198     362.4636     285.5719   1427.78198     362.4636     285.5719
   1427.76672     363.0964     286.1543   1427.76672     363.0964     286.1543
   1427.75146     363.7998     287.2349   1427.75146     363.7998     287.2349
   1427.73621     364.2040     288.3207   1427.73621     364.2040     288.3207
   1427.72095     365.8916     289.3156   1427.72095     365.8916     289.3156
   1427.70569     366.9546     289.7755   1427.70569     366.9546     289.7755
   1427.69043     367.8774     290.5776   1427.69043     367.8774     290.5776
   1427.67517     368.3934     291.6470   1427.67517     368.3934     291.6470
   1427.65991     369.5712     292.7982   1427.65991     369.5712     292.7982
   1427.64465     371.6539     294.3021   1427.64465     371.6539     294.3021
   1427.62939     372.2994     295.0605   1427.62939     372.2994     295.0605
   1427.61414     373.7598     296.1129   1427.61414     373.7598     296.1129
   1427.59888     374.4469     297.4851   1427.59888     374.4469     297.4851
   1427.58362     375.9106     298.5329   1427.58362     375.9106     298.5329
   1427.56836     377.4476     300.0942   1427.56836     377.4476     300.0942
   1427.55310     378.9689     301.2389   1427.55310     378.9689     301.2389
   1427.53784     380.8846     302.2881   1427.53784     380.8846     302.2881
   1427.52258     382.8286     303.5913   1427.52258     382.8286     303.5913
   1427.50732     383.9618     304.7147   1427.50732     383.9618     304.7147
   1427.49207     385.1514     306.7206   1427.49207     385.1514     306.7206
   1427.47681     387.4400     308.0941   1427.47681     387.4400     308.0941
   1427.46155     388.7470     309.5900   1427.46155     388.7470     309.5900
   1427.44629     390.8790     310.7834   1427.44629     390.8790     310.7834
   1427.43103     392.5189     312.5181   1427.43103     392.5189     312.5181
   1427.41577     394.3334     313.9795   1427.41577     394.3334     313.9795
   1427.40051     396.8909     315.0831   1427.40051     396.8909     315.0831
   1427.38525     399.1028     317.4408   1427.38525     399.1028     317.4408
   1427.37000     400.4968     319.0247   1427.37000     400.4968     319.0247
   1427.35474     402.4940     321.0925   1427.35474     402.4940     321.0925
   1427.33948     404.7757     322.1231   1427.33948     404.7757     322.1231
   1427.32422     407.5385     324.1320   1427.32422     407.5385     324.1320
   1427.30896     409.8865     326.0107   1427.30896     409.8865     326.0107
   1427.29370     411.3977     327.6367   1427.29370     411.3977     327.6367
   1427.27844     413.8118     329.4218   1427.27844     413.8118     329.4218
   1427.26318     416.0985     331.7727   1427.26318     416.0985     331.7727
   1427.24792     419.4216     332.7805   1427.24792     419.4216     332.7805
   1427.23267     420.7026     334.9208   1427.23267     420.7026     334.9208
   1427.21741     422.9047     336.2797   1427.21741     422.9047     336.2797
   1427.20215     425.6637     338.7773   1427.20215     425.6637     338.7773
   1427.18689     428.5464     341.2764   1427.18689     428.5464     341.2764
   1427.17163     430.9094     343.1698   1427.17163     430.9094     343.1698
   1427.15637     433.2811     344.7627   1427.15637     433.2811     344.7627
   1427.14111     436.0404     346.8455   1427.14111     436.0404     346.8455
   1427.12585     438.2866     349.0852   1427.12585     438.2866     349.0852
   1427.11060     441.3172     350.4053   1427.11060     441.3172     350.4053
   1427.09534     443.9840     353.0575   1427.09534     443.9840     353.0575
   1427.08008     446.6179     354.5765   1427.08008     446.6179     354.5765
   1427.06482     449.2384     356.3291   1427.06482     449.2384     356.3291
   1427.04956     451.5936     359.6191   1427.04956     451.5936     359.6191
   1427.03430     454.3588     361.2110   1427.03430     454.3588     361.2110
   1427.01904     456.6441     363.2677   1427.01904     456.6441     363.2677
   1427.00378     460.2062     365.3325   1427.00378     460.2062     365.3325
   1426.98853     463.7113     367.9629   1426.98853     463.7113     367.9629
   1426.97327     465.2150     369.8112   1426.97327     465.2150     369.8112
   1426.95801     468.7440     371.6494   1426.95801     468.7440     371.6494
   1426.94275     472.5201     373.9582   1426.94275     472.5201     373.9582
   1426.92749     474.8203     376.5630   1426.92749     474.8203     376.5630
   1426.91223     478.5770     378.8019   1426.91223     478.5770     378.8019
   1426.89697     480.0675     380.7007   1426.89697     480.0675     380.7007
   1426.88171     483.1537     382.4537   1426.88171     483.1537     382.4537
   1426.86646     486.8624     384.9962   1426.86646     486.8624     384.9962
   1426.85120     489.5842     387.2530   1426.85120     489.5842     387.2530
   1426.83594     491.8298     389.6475   1426.83594     491.8298     389.6475
   1426.82068     494.9251     391.8332   1426.82068     494.9251     391.8332
   1426.80542     497.7780     393.8225   1426.80542     497.7780     393.8225
   1426.79016     501.2890     396.2207   1426.79016     501.2890     396.2207
   1426.77490     504.5631     398.6805   1426.77490     504.5631     398.6805
   1426.75964     507.9662     400.3568   1426.75964     507.9662     400.3568
   1426.74438     510.5374     403.4810   1426.74438     510.5374     403.4810
   1426.72913     512.6595     404.5820   1426.72913     512.6595     404.5820
   1426.71387     516.2247     407.2868   1426.71387     516.2247     407.2868
   1426.69861     519.2477     409.8138   1426.69861     519.2477     409.8138
   1426.68335     522.8932     412.0669   1426.68335     522.8932     412.0669
   1426.66809     525.6805     414.4360   1426.66809     525.6805     414.4360
   1426.65283     528.1465     416.5438   1426.65283     528.1465     416.5438
   1426.63757     531.4724     418.6331   1426.63757     531.4724     418.6331
   1426.62231     536.6863     422.5865   1426.62231     536.6863     422.5865
   1426.60706     537.6089     423.4868   1426.60706     537.6089     423.4868
   1426.59180     539.9938     424.9492   1426.59180     539.9938     424.9492
   1426.57654     542.6440     427.4673   1426.57654     542.6440     427.4673
   1426.56128     546.6593     430.3410   1426.56128     546.6593     430.3410
   1426.54602     548.5113     431.8316   1426.54602     548.5113     431.8316
   1426.53076     552.6782     433.8303   1426.53076     552.6782     433.8303
   1426.51550     554.9662     436.0012   1426.51550     554.9662     436.0012
   1426.50024     558.7734     438.9048   1426.50024     558.7734     438.9048
   1426.48499     560.6202     441.4399   1426.48499     560.6202     441.4399
   1426.46973     564.1852     443.9370   1426.46973     564.1852     443.9370
   1426.45447     567.3988     445.0095   1426.45447     567.3988     445.0095
   1426.43921     570.0985     447.0266   1426.43921     570.0985     447.0266
   1426.42395     573.8430     449.6551   1426.42395     573.8430     449.6551
   1426.40869     576.2926     451.8014   1426.40869     576.2926     451.8014
   1426.39343     578.5272     452.8450   1426.39343     578.5272     452.8450
   1426.37817     581.5060     456.3623   1426.37817     581.5060     456.3623
   1426.36292     584.3862     458.7998   1426.36292     584.3862     458.7998
   1426.34766     587.6121     460.4812   1426.34766     587.6121     460.4812
   1426.33240     590.0388     462.4289   1426.33240     590.0388     462.4289
   1426.31714     593.0092     464.4720   1426.31714     593.0092     464.4720
   1426.30188     596.0599     466.5223   1426.30188     596.0599     466.5223
   1426.28662     598.7327     467.9043   1426.28662     598.7327     467.9043
   1426.27136     601.7858     470.7533   1426.27136     601.7858     470.7533
   1426.25610     605.0901     472.3473   1426.25610     605.0901     472.3473
   1426.24084     607.3361     474.9812   1426.24084     607.3361     474.9812
   1426.22559     609.9016     476.4911   1426.22559     609.9016     476.4911
   1426.21033     612.2734     478.4812   1426.21033     612.2734     478.4812
   1426.19507     614.5071     480.7528   1426.19507     614.5071     480.7528
   1426.17981     617.0536     482.6139   1426.17981     617.0536     482.6139
   1426.16455     619.9678     484.8187   1426.16455     619.9678     484.8187
   1426.14929     623.2230     486.5820   1426.14929     623.2230     486.5820
   1426.13403     625.7648     488.3214   1426.13403     625.7648     488.3214
   1426.11877     627.7742     491.1338   1426.11877     627.7742     491.1338
   1426.10352     630.6498     492.8123   1426.10352     630.6498     492.8123
   1426.08826     632.4256     493.9753   1426.08826     632.4256     493.9753
   1426.07300     636.0804     495.3730   1426.07300     636.0804     495.3730
   1426.05774     638.4622     498.0181   1426.05774     638.4622     498.0181
   1426.04248     640.5836     499.8645   1426.04248     640.5836     499.8645
   1426.02722     642.2791     501.3859   1426.02722     642.2791     501.3859
   1426.01196     645.2741     503.1984   1426.01196     645.2741     503.1984
   1425.99670     648.0650     505.3047   1425.99670     648.0650     505.3047
   1425.98145     650.3668     506.2113   1425.98145     650.3668     506.2113
   1425.96619     653.0870     508.6776   1425.96619     653.0870     508.6776
   1425.95093     654.6752     510.7303   1425.95093     654.6752     510.7303
   1425.93567     655.9655     511.2671   1425.93567     655.9655     511.2671
   1425.92041     658.3473     513.9310   1425.92041     658.3473     513.9310
   1425.90515     661.1984     515.6613   1425.90515     661.1984     515.6613
   1425.88989     663.3135     517.2131   1425.88989     663.3135     517.2131
   1425.87463     664.6011     518.4571   1425.87463     664.6011     518.4571
   1425.85938     666.9742     520.2122   1425.85938     666.9742     520.2122
   1425.84412     668.7358     521.7710   1425.84412     668.7358     521.7710
   1425.82886     671.3281     523.8414   1425.82886     671.3281     523.8414
   1425.81360     673.3759     525.3473   1425.81360     673.3759     525.3473
   1425.79834     675.6007     526.2854   1425.79834     675.6007     526.2854
   1425.78308     676.2610     528.0814   1425.78308     676.2610     528.0814
   1425.76782     679.3331     529.7120   1425.76782     679.3331     529.7120
   1425.75256     680.1525     531.1740   1425.75256     680.1525     531.1740
   1425.73730     682.2192     532.5319   1425.73730     682.2192     532.5319
   1425.72205     684.1541     534.8813   1425.72205     684.1541     534.8813
   1425.70679     686.4307     535.8754   1425.70679     686.4307     535.8754
   1425.69153     687.8953     536.7879   1425.69153     687.8953     536.7879
   1425.67627     688.9011     538.4794   1425.67627     688.9011     538.4794
   1425.66101     691.7260     540.1064   1425.66101     691.7260     540.1064
   1425.64575     692.4156     541.5988   1425.64575     692.4156     541.5988
   1425.63049     693.3730     542.8121   1425.63049     693.3730     542.8121
   1425.61523     695.6225     544.7773   1425.61523     695.6225     544.7773
   1425.59998     697.6437     546.4275   1425.59998     697.6437     546.4275
   1425.58472     698.0720     547.1416   1425.58472     698.0720     547.1416
   1425.56946     700.5615     548.3018   1425.56946     700.5615     548.3018
   1425.55420     700.7579     549.8314   1425.55420     700.7579     549.8314
   1425.53894     702.4587     551.7426   1425.53894     702.4587     551.7426
   1425.52368     704.4186     552.5306   1425.52368     704.4186     552.5306
   1425.50842     705.7433     554.2417   1425.50842     705.7433     554.2417
   1425.49316     707.4671     554.8469   1425.49316     707.4671     554.8469
   1425.47791     708.4542     556.3072   1425.47791     708.4542     556.3072
   1425.46265     710.6151     558.0359   1425.46265     710.6151     558.0359
   1425.44739     710.5765     558.2643   1425.44739     710.5765     558.2643
   1425.43213     712.5068     559.8022   1425.43213     712.5068     559.8022
   1425.41687     714.5068     561.8342   1425.41687     714.5068     561.8342
   1425.40161     714.7811     562.0845   1425.40161     714.7811     562.0845
   1425.38635     715.5757     563.1633   1425.38635     715.5757     563.1633
   1425.37109     715.9622     566.0692   1425.37109     715.9622     566.0692
   1425.35583     718.9838     565.4005   1425.35583     718.9838     565.4005
   1425.34058     717.9942     567.6281   1425.34058     717.9942     567.6281
   1425.32532     720.1458     568.5953   1425.32532     720.1458     568.5953
   1425.31006     720.7089     569.9153   1425.31006     720.7089     569.9153
   1425.29480     722.0057     570.2739   1425.29480     722.0057     570.2739
   1425.27954     724.6218     572.1251   1425.27954     724.6218     572.1251
   1425.26428     723.0764     573.0219   1425.26428     723.0764     573.0219
   1425.24902     725.1942     574.3970   1425.24902     725.1942     574.3970
   1425.23376     725.2289     575.4977   1425.23376     725.2289     575.4977
   1425.21851     725.6885     576.2551   1425.21851     725.6885     576.2551
   1425.20325     727.6044     577.3862   1425.20325     727.6044     577.3862
   1425.18799     726.6505     577.8673   1425.18799     726.6505     577.8673
   1425.17273     728.6826     580.4486   1425.17273     728.6826     580.4486
   1425.15747     729.5518     580.4943   1425.15747     729.5518     580.4943
   1425.14221     730.2595     581.6479   1425.14221     730.2595     581.6479
   1425.12695     729.2660     583.5565   1425.12695     729.2660     583.5565
   1425.11169     731.5322     583.9569   1425.11169     731.5322     583.9569
   1425.09644     732.1389     583.8178   1425.09644     732.1389     583.8178
   1425.08118     732.0259     585.4238   1425.08118     732.0259     585.4238
   1425.06592     732.4834     585.7367   1425.06592     732.4834     585.7367
   1425.05066     733.1160     587.9641   1425.05066     733.1160     587.9641
   1425.03540     734.4291     589.3878   1425.03540     734.4291     589.3878
   1425.02014     734.9439     588.8926   1425.02014     734.9439     588.8926
   1425.00488     735.1558     589.9205   1425.00488     735.1558     589.9205
   1424.98962     735.7507     590.8124   1424.98962     735.7507     590.8124
   1424.97437     736.0701     592.2970   1424.97437     736.0701     592.2970
   1424.95911     736.8546     593.4495   1424.95911     736.8546     593.4495
   1424.94385     736.7743     593.5208   1424.94385     736.7743     593.5208
   1424.92859     737.5181     594.9542   1424.92859     737.5181     594.9542
   1424.91333     739.0752     595.0361   1424.91333     739.0752     595.0361
   1424.89807     736.7524     596.8683   1424.89807     736.7524     596.8683
   1424.88281     737.9891     596.9700   1424.88281     737.9891     596.9700
   1424.86755     737.9972     598.0966   1424.86755     737.9972     598.0966
   1424.85229     738.7633     598.9913   1424.85229     738.7633     598.9913
   1424.83704     740.5385     600.5360   1424.83704     740.5385     600.5360
   1424.82178     738.7155     599.7864   1424.82178     738.7155     599.7864
   1424.80652     740.3234     602.2953   1424.80652     740.3234     602.2953
   1424.79126     739.8444     602.9514   1424.79126     739.8444     602.9514
   1424.77600     739.0013     604.0836   1424.77600     739.0013     604.0836
   1424.76074     741.4107     603.5756   1424.76074     741.4107     603.5756
   1424.74548     740.1229     605.1514   1424.74548     740.1229     605.1514
   1424.73022     740.0308     605.2113   1424.73022     740.0308     605.2113
   1424.71497     741.2522     606.2087   1424.71497     741.2522     606.2087
   1424.69971     740.7859     606.9700   1424.69971     740.7859     606.9700
   1424.68445     741.8671     607.0549   1424.68445     741.8671     607.0549
   1424.66919     741.4103     608.7861   1424.66919     741.4103     608.7861
   1424.65393     740.9966     609.2104   1424.65393     740.9966     609.2104
   1424.63867     741.4501     610.4197   1424.63867     741.4501     610.4197
   1424.62341     742.3240     609.9779   1424.62341     742.3240     609.9779
   1424.60815     740.6408     610.8079   1424.60815     740.6408     610.8079
   1424.59290     741.0405     611.4388   1424.59290     741.0405     611.4388
   1424.57764     741.5795     612.2556   1424.57764     741.5795     612.2556
   1424.56238     740.8508     613.2499   1424.56238     740.8508     613.2499
   1424.54712     742.0814     613.5803   1424.54712     742.0814     613.5803
   1424.53186     741.5695     613.8457   1424.53186     741.5695     613.8457
   1424.51660     742.7834     615.8450   1424.51660     742.7834     615.8450
   1424.50134     741.0302     615.3153   1424.50134     741.0302     615.3153
   1424.48608     741.4434     616.0363   1424.48608     741.4434     616.0363
   1424.47083     741.9776     617.1119   1424.47083     741.9776     617.1119
   1424.45557     739.9840     617.1284   1424.45557     739.9840     617.1284
   1424.44031     741.6735     617.4767   1424.44031     741.6735     617.4767
   1424.42505     740.8645     619.0805   1424.42505     740.8645     619.0805
   1424.40979     740.9242     619.1886   1424.40979     740.9242     619.1886
   1424.39453     740.6030     620.1562   1424.39453     740.6030     620.1562
   1424.37927     742.4874     621.2498   1424.37927     742.4874     621.2498
   1424.36401     740.2699     620.6064   1424.36401     740.2699     620.6064
   1424.34875     740.7714     621.7667   1424.34875     740.7714     621.7667
   1424.33350     740.1182     622.5540   1424.33350     740.1182     622.5540
   1424.31824     740.8784     623.4890   1424.31824     740.8784     623.4890
   1424.30298     739.8539     623.3287   1424.30298     739.8539     623.3287
   1424.28772     742.0771     624.8467   1424.28772     742.0771     624.8467
   1424.27246     740.1870     624.5829   1424.27246     740.1870     624.5829
   1424.25720     740.0533     624.9252   1424.25720     740.0533     624.9252
   1424.24194     741.3439     625.9289   1424.24194     741.3439     625.9289
   1424.22668     740.5983     627.1270   1424.22668     740.5983     627.1270
   1424.21143     739.1309     625.9219   1424.21143     739.1309     625.9219
   1424.19617     739.3760     627.4142   1424.19617     739.3760     627.4142
   1424.18091     738.3265     627.2788   1424.18091     738.3265     627.2788
   1424.16565     737.6145     628.8787   1424.16565     737.6145     628.8787
