#     FILENAME=!Skynet_57528_lach-hhg-133_20440_20957.cyb.fits
#     BASENAME=Skynet_57528_lach-hhg-133_20440_20957
#     SRC_NAME=lach-hhg-133
#     OBSERVER=hhgmadison16_9500
#     DATE_OBS=2016-05-20T17:03:34.120
#        OBSID=20440
#      SCANNUM=20957
#          MJD=57528.7119
#          UTC=61503
#     SCANTYPE=track
#     DATAMODE=HIRES
#     TUNEFREQ=1420.0000
# Actual_FREQ1=1420.0000
# Actual_FREQ2=1420.0000
#    LO1Tuning=6870.000
#     RFFILTER=1355_1435
#        OBSBW=-15.6250
#        NCHAN=1024 
#        FOCUS=37.0709
#           RA=02:16:36.56
#          DEC=61:11:51.93
#      RA(hrs)=2.276800
#     DEC(deg)=61.197800
#    AZIM(deg)=337.105
#    ELEV(deg)=63.803
#     IFattens=11.00, 10.00
#      WARNING=None
#    TCAL_XL1=7.9635
#    TCAL_YR1=9.1340
#    TCAL_XL2=7.9635
#    TCAL_YR2=9.1340
#     TRX_XL1=11.7060
#     TRX_YR1=11.7060
#     TRX_XL2=11.7060
#     TRX_YR2=11.7060
#        TAVE=1.0000
#Freq1(MHz)          XL1          YR1  Freq2(MHz)          XL2          YR2 

   1427.81250     300.9268     239.3555   1427.81250     300.9268     239.3555
   1427.79724     300.9807     240.1570   1427.79724     300.9807     240.1570
   1427.78198     301.5112     240.4235   1427.78198     301.5112     240.4235
   1427.76672     301.7600     241.5044   1427.76672     301.7600     241.5044
   1427.75146     302.3729     242.4426   1427.75146     302.3729     242.4426
   1427.73621     303.0855     242.8745   1427.73621     303.0855     242.8745
   1427.72095     304.1461     244.1409   1427.72095     304.1461     244.1409
   1427.70569     304.8369     245.2115   1427.70569     304.8369     245.2115
   1427.69043     305.4914     246.0024   1427.69043     305.4914     246.0024
   1427.67517     306.7008     246.6137   1427.67517     306.7008     246.6137
   1427.65991     307.2466     248.2295   1427.65991     307.2466     248.2295
   1427.64465     308.4941     249.2425   1427.64465     308.4941     249.2425
   1427.62939     309.5106     250.5916   1427.62939     309.5106     250.5916
   1427.61414     310.7073     251.4917   1427.61414     310.7073     251.4917
   1427.59888     311.5638     252.5639   1427.59888     311.5638     252.5639
   1427.58362     312.4454     253.4640   1427.58362     312.4454     253.4640
   1427.56836     313.6887     254.7983   1427.56836     313.6887     254.7983
   1427.55310     315.4074     255.8457   1427.55310     315.4074     255.8457
   1427.53784     316.5293     257.2820   1427.53784     316.5293     257.2820
   1427.52258     317.6389     258.8532   1427.52258     317.6389     258.8532
   1427.50732     318.7460     259.9856   1427.50732     318.7460     259.9856
   1427.49207     320.1023     261.3630   1427.49207     320.1023     261.3630
   1427.47681     321.9576     263.2223   1427.47681     321.9576     263.2223
   1427.46155     322.6681     264.4423   1427.46155     322.6681     264.4423
   1427.44629     324.3319     265.8416   1427.44629     324.3319     265.8416
   1427.43103     326.3704     267.6025   1427.43103     326.3704     267.6025
   1427.41577     327.9937     269.5072   1427.41577     327.9937     269.5072
   1427.40051     329.3315     270.2489   1427.40051     329.3315     270.2489
   1427.38525     331.2779     272.0572   1427.38525     331.2779     272.0572
   1427.37000     332.1248     274.1735   1427.37000     332.1248     274.1735
   1427.35474     333.5744     275.4948   1427.35474     333.5744     275.4948
   1427.33948     335.7955     276.6828   1427.33948     335.7955     276.6828
   1427.32422     337.4557     278.1403   1427.32422     337.4557     278.1403
   1427.30896     339.8858     280.3681   1427.30896     339.8858     280.3681
   1427.29370     341.2889     281.8125   1427.29370     341.2889     281.8125
   1427.27844     343.1402     283.9477   1427.27844     343.1402     283.9477
   1427.26318     345.1891     285.2693   1427.26318     345.1891     285.2693
   1427.24792     346.8248     287.7328   1427.24792     346.8248     287.7328
   1427.23267     348.9777     289.0052   1427.23267     348.9777     289.0052
   1427.21741     351.4494     290.6985   1427.21741     351.4494     290.6985
   1427.20215     352.8284     292.5853   1427.20215     352.8284     292.5853
   1427.18689     355.2645     294.1833   1427.18689     355.2645     294.1833
   1427.17163     356.9659     296.4668   1427.17163     356.9659     296.4668
   1427.15637     359.7325     298.1566   1427.15637     359.7325     298.1566
   1427.14111     361.5201     300.1923   1427.14111     361.5201     300.1923
   1427.12585     363.9324     302.0782   1427.12585     363.9324     302.0782
   1427.11060     365.8159     304.1158   1427.11060     365.8159     304.1158
   1427.09534     368.1374     306.1990   1427.09534     368.1374     306.1990
   1427.08008     370.3098     307.9149   1427.08008     370.3098     307.9149
   1427.06482     373.2486     310.1517   1427.06482     373.2486     310.1517
   1427.04956     375.0773     312.0344   1427.04956     375.0773     312.0344
   1427.03430     377.4677     313.6165   1427.03430     377.4677     313.6165
   1427.01904     379.6275     315.9356   1427.01904     379.6275     315.9356
   1427.00378     381.7540     318.4014   1427.00378     381.7540     318.4014
   1426.98853     384.9145     320.4142   1426.98853     384.9145     320.4142
   1426.97327     386.3476     322.6628   1426.97327     386.3476     322.6628
   1426.95801     389.3704     324.5364   1426.95801     389.3704     324.5364
   1426.94275     391.8817     326.5879   1426.94275     391.8817     326.5879
   1426.92749     394.0604     328.8365   1426.92749     394.0604     328.8365
   1426.91223     396.7780     330.5502   1426.91223     396.7780     330.5502
   1426.89697     399.2541     332.5526   1426.89697     399.2541     332.5526
   1426.88171     401.7503     335.1326   1426.88171     401.7503     335.1326
   1426.86646     403.0279     336.9607   1426.86646     403.0279     336.9607
   1426.85120     407.1708     338.7335   1426.85120     407.1708     338.7335
   1426.83594     408.8990     341.8430   1426.83594     408.8990     341.8430
   1426.82068     411.3696     343.6737   1426.82068     411.3696     343.6737
   1426.80542     414.0699     345.4721   1426.80542     414.0699     345.4721
   1426.79016     417.4808     347.8503   1426.79016     417.4808     347.8503
   1426.77490     419.8216     349.7582   1426.77490     419.8216     349.7582
   1426.75964     421.8685     352.4514   1426.75964     421.8685     352.4514
   1426.74438     423.9623     354.2048   1426.74438     423.9623     354.2048
   1426.72913     426.8381     356.0275   1426.72913     426.8381     356.0275
   1426.71387     429.8922     357.9862   1426.71387     429.8922     357.9862
   1426.69861     432.2693     360.2978   1426.69861     432.2693     360.2978
   1426.68335     434.8164     362.6664   1426.68335     434.8164     362.6664
   1426.66809     437.3199     364.3218   1426.66809     437.3199     364.3218
   1426.65283     439.3723     366.7389   1426.65283     439.3723     366.7389
   1426.63757     442.6418     369.0070   1426.63757     442.6418     369.0070
   1426.62231     445.6444     372.4156   1426.62231     445.6444     372.4156
   1426.60706     447.7878     373.2988   1426.60706     447.7878     373.2988
   1426.59180     449.2263     375.6989   1426.59180     449.2263     375.6989
   1426.57654     453.3020     377.2262   1426.57654     453.3020     377.2262
   1426.56128     455.4930     379.4638   1426.56128     455.4930     379.4638
   1426.54602     458.7375     382.0600   1426.54602     458.7375     382.0600
   1426.53076     461.1494     383.9768   1426.53076     461.1494     383.9768
   1426.51550     463.1490     385.8924   1426.51550     463.1490     385.8924
   1426.50024     466.3588     388.2017   1426.50024     466.3588     388.2017
   1426.48499     468.9845     390.0003   1426.48499     468.9845     390.0003
   1426.46973     471.6656     391.2435   1426.46973     471.6656     391.2435
   1426.45447     473.8654     392.9941   1426.45447     473.8654     392.9941
   1426.43921     475.8921     395.6003   1426.43921     475.8921     395.6003
   1426.42395     478.4318     398.2576   1426.42395     478.4318     398.2576
   1426.40869     481.8300     400.1731   1426.40869     481.8300     400.1731
   1426.39343     483.8065     401.4675   1426.39343     483.8065     401.4675
   1426.37817     486.5585     404.1059   1426.37817     486.5585     404.1059
   1426.36292     488.4638     405.6095   1426.36292     488.4638     405.6095
   1426.34766     491.3720     408.1166   1426.34766     491.3720     408.1166
   1426.33240     492.9916     410.2863   1426.33240     492.9916     410.2863
   1426.31714     496.1289     412.3000   1426.31714     496.1289     412.3000
   1426.30188     499.7569     414.6119   1426.30188     499.7569     414.6119
   1426.28662     500.7612     416.0168   1426.28662     500.7612     416.0168
   1426.27136     503.2448     417.3352   1426.27136     503.2448     417.3352
   1426.25610     506.4869     419.2521   1426.25610     506.4869     419.2521
   1426.24084     508.3961     421.3870   1426.24084     508.3961     421.3870
   1426.22559     510.7351     423.7031   1426.22559     510.7351     423.7031
   1426.21033     513.3994     425.1256   1426.21033     513.3994     425.1256
   1426.19507     515.9451     426.7969   1426.19507     515.9451     426.7969
   1426.17981     517.5103     429.2201   1426.17981     517.5103     429.2201
   1426.16455     519.9313     430.9734   1426.16455     519.9313     430.9734
   1426.14929     522.5015     432.2806   1426.14929     522.5015     432.2806
   1426.13403     525.1000     434.0371   1426.13403     525.1000     434.0371
   1426.11877     527.0538     435.9209   1426.11877     527.0538     435.9209
   1426.10352     529.2347     438.0046   1426.10352     529.2347     438.0046
   1426.08826     531.8022     439.5654   1426.08826     531.8022     439.5654
   1426.07300     533.4700     440.6886   1426.07300     533.4700     440.6886
   1426.05774     536.0853     442.8199   1426.05774     536.0853     442.8199
   1426.04248     538.6708     444.5756   1426.04248     538.6708     444.5756
   1426.02722     540.1558     445.2377   1426.02722     540.1558     445.2377
   1426.01196     542.7031     446.8371   1426.01196     542.7031     446.8371
   1425.99670     544.4458     449.3464   1425.99670     544.4458     449.3464
   1425.98145     546.8944     451.5650   1425.98145     546.8944     451.5650
   1425.96619     548.1851     452.6930   1425.96619     548.1851     452.6930
   1425.95093     550.4747     453.8546   1425.95093     550.4747     453.8546
   1425.93567     553.2199     455.0189   1425.93567     553.2199     455.0189
   1425.92041     554.2731     456.6834   1425.92041     554.2731     456.6834
   1425.90515     556.7564     457.7079   1425.90515     556.7564     457.7079
   1425.88989     557.7795     460.6396   1425.88989     557.7795     460.6396
   1425.87463     560.3086     461.0959   1425.87463     560.3086     461.0959
   1425.85938     562.1439     462.7751   1425.85938     562.1439     462.7751
   1425.84412     563.3116     463.7071   1425.84412     563.3116     463.7071
   1425.82886     565.7343     465.3860   1425.82886     565.7343     465.3860
   1425.81360     566.9821     466.9196   1425.81360     566.9821     466.9196
   1425.79834     570.3788     468.8017   1425.79834     570.3788     468.8017
   1425.78308     570.7906     469.1990   1425.78308     570.7906     469.1990
   1425.76782     572.4868     471.0800   1425.76782     572.4868     471.0800
   1425.75256     573.6964     471.5105   1425.75256     573.6964     471.5105
   1425.73730     575.6994     473.5155   1425.73730     575.6994     473.5155
   1425.72205     577.4642     474.6585   1425.72205     577.4642     474.6585
   1425.70679     579.0215     476.1759   1425.70679     579.0215     476.1759
   1425.69153     580.2906     477.6320   1425.69153     580.2906     477.6320
   1425.67627     582.3585     478.9521   1425.67627     582.3585     478.9521
   1425.66101     583.8868     479.6986   1425.66101     583.8868     479.6986
   1425.64575     584.0049     481.5023   1425.64575     584.0049     481.5023
   1425.63049     587.3977     482.1761   1425.63049     587.3977     482.1761
   1425.61523     588.1440     483.0821   1425.61523     588.1440     483.0821
   1425.59998     589.7563     484.6278   1425.59998     589.7563     484.6278
   1425.58472     591.1187     485.5998   1425.58472     591.1187     485.5998
   1425.56946     591.6394     485.9944   1425.56946     591.6394     485.9944
   1425.55420     593.0086     487.2640   1425.55420     593.0086     487.2640
   1425.53894     595.0746     489.0700   1425.53894     595.0746     489.0700
   1425.52368     595.8700     489.0075   1425.52368     595.8700     489.0075
   1425.50842     596.8511     490.8311   1425.50842     596.8511     490.8311
   1425.49316     598.4711     492.4765   1425.49316     598.4711     492.4765
   1425.47791     599.9671     492.7856   1425.47791     599.9671     492.7856
   1425.46265     600.6055     493.3302   1425.46265     600.6055     493.3302
   1425.44739     601.1788     494.7175   1425.44739     601.1788     494.7175
   1425.43213     602.5016     495.7277   1425.43213     602.5016     495.7277
   1425.41687     604.4904     496.6632   1425.41687     604.4904     496.6632
   1425.40161     605.3863     497.0428   1425.40161     605.3863     497.0428
   1425.38635     606.1243     498.0065   1425.38635     606.1243     498.0065
   1425.37109     607.1343     499.0308   1425.37109     607.1343     499.0308
   1425.35583     607.4441     500.0387   1425.35583     607.4441     500.0387
   1425.34058     608.6974     500.7168   1425.34058     608.6974     500.7168
   1425.32532     609.1909     501.2976   1425.32532     609.1909     501.2976
   1425.31006     610.0718     503.1461   1425.31006     610.0718     503.1461
   1425.29480     611.2724     503.2549   1425.29480     611.2724     503.2549
   1425.27954     611.2820     503.5383   1425.27954     611.2820     503.5383
   1425.26428     612.6180     503.7176   1425.26428     612.6180     503.7176
   1425.24902     613.8245     505.6485   1425.24902     613.8245     505.6485
   1425.23376     614.5424     506.4601   1425.23376     614.5424     506.4601
   1425.21851     615.0862     506.6152   1425.21851     615.0862     506.6152
   1425.20325     616.1470     508.6312   1425.20325     616.1470     508.6312
   1425.18799     615.9379     508.5493   1425.18799     615.9379     508.5493
   1425.17273     617.6500     508.7384   1425.17273     617.6500     508.7384
   1425.15747     618.1646     509.4300   1425.15747     618.1646     509.4300
   1425.14221     618.9260     510.5518   1425.14221     618.9260     510.5518
   1425.12695     619.7418     511.2586   1425.12695     619.7418     511.2586
   1425.11169     619.0976     510.8130   1425.11169     619.0976     510.8130
   1425.09644     620.0114     511.2257   1425.09644     620.0114     511.2257
   1425.08118     619.8586     512.2526   1425.08118     619.8586     512.2526
   1425.06592     621.3451     513.2438   1425.06592     621.3451     513.2438
   1425.05066     621.4937     512.8894   1425.05066     621.4937     512.8894
   1425.03540     621.9533     513.4480   1425.03540     621.9533     513.4480
   1425.02014     623.2557     514.8171   1425.02014     623.2557     514.8171
   1425.00488     624.2175     514.9111   1425.00488     624.2175     514.9111
   1424.98962     623.8387     515.7341   1424.98962     623.8387     515.7341
   1424.97437     623.4207     515.4157   1424.97437     623.4207     515.4157
   1424.95911     624.2029     516.7725   1424.95911     624.2029     516.7725
   1424.94385     624.1445     516.9227   1424.94385     624.1445     516.9227
   1424.92859     624.9661     516.5024   1424.92859     624.9661     516.5024
   1424.91333     625.5290     517.6870   1424.91333     625.5290     517.6870
   1424.89807     625.3250     517.6819   1424.89807     625.3250     517.6819
   1424.88281     625.2599     518.0080   1424.88281     625.2599     518.0080
   1424.86755     625.0352     518.5176   1424.86755     625.0352     518.5176
   1424.85229     626.5410     518.2326   1424.85229     626.5410     518.2326
   1424.83704     624.6374     519.8292   1424.83704     624.6374     519.8292
   1424.82178     625.9187     518.9747   1424.82178     625.9187     518.9747
   1424.80652     626.1261     520.6347   1424.80652     626.1261     520.6347
   1424.79126     626.4821     519.6906   1424.79126     626.4821     519.6906
   1424.77600     626.1229     520.0008   1424.77600     626.1229     520.0008
   1424.76074     626.9191     520.6796   1424.76074     626.9191     520.6796
   1424.74548     625.7342     520.4285   1424.74548     625.7342     520.4285
   1424.73022     626.7972     520.4617   1424.73022     626.7972     520.4617
   1424.71497     626.2664     520.9250   1424.71497     626.2664     520.9250
   1424.69971     626.7169     520.7366   1424.69971     626.7169     520.7366
   1424.68445     626.3530     520.9117   1424.68445     626.3530     520.9117
   1424.66919     625.8298     520.3600   1424.66919     625.8298     520.3600
   1424.65393     626.6082     521.4139   1424.65393     626.6082     521.4139
   1424.63867     626.1650     521.7815   1424.63867     626.1650     521.7815
   1424.62341     626.5009     521.1925   1424.62341     626.5009     521.1925
   1424.60815     627.0262     521.5259   1424.60815     627.0262     521.5259
   1424.59290     625.8983     520.9341   1424.59290     625.8983     520.9341
   1424.57764     625.9850     522.8672   1424.57764     625.9850     522.8672
   1424.56238     625.6481     522.1176   1424.56238     625.6481     522.1176
   1424.54712     626.1408     522.0612   1424.54712     626.1408     522.0612
   1424.53186     626.0853     522.3702   1424.53186     626.0853     522.3702
   1424.51660     626.0310     522.2543   1424.51660     626.0310     522.2543
   1424.50134     624.8016     522.5092   1424.50134     624.8016     522.5092
   1424.48608     626.6273     522.5554   1424.48608     626.6273     522.5554
   1424.47083     626.1194     522.7437   1424.47083     626.1194     522.7437
   1424.45557     625.2963     521.7505   1424.45557     625.2963     521.7505
   1424.44031     625.4585     523.1152   1424.44031     625.4585     523.1152
   1424.42505     624.8738     522.0060   1424.42505     624.8738     522.0060
   1424.40979     624.1943     522.3528   1424.40979     624.1943     522.3528
   1424.39453     623.1281     522.5289   1424.39453     623.1281     522.5289
   1424.37927     624.0484     522.8982   1424.37927     624.0484     522.8982
   1424.36401     623.3637     522.2774   1424.36401     623.3637     522.2774
   1424.34875     623.5706     522.8381   1424.34875     623.5706     522.8381
   1424.33350     622.5101     522.4253   1424.33350     622.5101     522.4253
   1424.31824     622.0672     522.3518   1424.31824     622.0672     522.3518
   1424.30298     621.4028     521.9908   1424.30298     621.4028     521.9908
   1424.28772     622.4283     522.1714   1424.28772     622.4283     522.1714
   1424.27246     622.6439     522.0244   1424.27246     622.6439     522.0244
   1424.25720     621.6021     522.1631   1424.25720     621.6021     522.1631
   1424.24194     621.5021     521.6920   1424.24194     621.5021     521.6920
   1424.22668     620.4857     521.8031   1424.22668     620.4857     521.8031
   1424.21143     620.2661     522.0331   1424.21143     620.2661     522.0331
   1424.19617     620.8647     520.9133   1424.19617     620.8647     520.9133
   1424.18091     619.7486     520.8460   1424.18091     619.7486     520.8460
   1424.16565     619.9802     522.0650   1424.16565     619.9802     522.0650
