#     FILENAME=!Skynet_57535_lach-hhg-247-2_20900_21315.cyb.fits
#     BASENAME=Skynet_57535_lach-hhg-247-2_20900_21315
#     SRC_NAME=lach-hhg-247-2
#     OBSERVER=hhgmadison16_9500
#     DATE_OBS=2016-05-27T21:36:06.810
#        OBSID=20900
#      SCANNUM=21315
#          MJD=57535.9011
#          UTC=77856
#     SCANTYPE=track
#     DATAMODE=HIRES
#     TUNEFREQ=1420.0000
# Actual_FREQ1=1420.0000
# Actual_FREQ2=1420.0000
#    LO1Tuning=6870.000
#     RFFILTER=1355_1435
#        OBSBW=-15.6250
#        NCHAN=1024 
#        FOCUS=37.1148
#           RA=07:59:59.51
#          DEC=-29:54:16.41
#      RA(hrs)=7.999900
#     DEC(deg)=-29.904600
#    AZIM(deg)=188.664
#    ELEV(deg)=20.846
#     IFattens=10.00, 9.00
#      WARNING=None
#    TCAL_XL1=7.9635
#    TCAL_YR1=9.1340
#    TCAL_XL2=7.9635
#    TCAL_YR2=9.1340
#     TRX_XL1=11.7060
#     TRX_YR1=11.7060
#     TRX_XL2=11.7060
#     TRX_YR2=11.7060
#        TAVE=1.0000
#Freq1(MHz)          XL1          YR1  Freq2(MHz)          XL2          YR2 

   1427.81250     383.0884     244.4815   1427.81250     383.0884     244.4815
   1427.79724     383.6034     244.0679   1427.79724     383.6034     244.0679
   1427.78198     384.2513     244.2466   1427.78198     384.2513     244.2466
   1427.76672     385.1654     244.9542   1427.76672     385.1654     244.9542
   1427.75146     385.6352     244.9143   1427.75146     385.6352     244.9143
   1427.73621     386.9185     245.9441   1427.73621     386.9185     245.9441
   1427.72095     387.8997     245.8791   1427.72095     387.8997     245.8791
   1427.70569     388.9788     246.4249   1427.70569     388.9788     246.4249
   1427.69043     390.1284     247.2985   1427.69043     390.1284     247.2985
   1427.67517     390.6726     247.3349   1427.67517     390.6726     247.3349
   1427.65991     391.5950     248.1942   1427.65991     391.5950     248.1942
   1427.64465     392.7926     248.7368   1427.64465     392.7926     248.7368
   1427.62939     394.2426     249.7602   1427.62939     394.2426     249.7602
   1427.61414     395.2219     250.2424   1427.61414     395.2219     250.2424
   1427.59888     397.0410     250.4369   1427.59888     397.0410     250.4369
   1427.58362     397.8863     251.7344   1427.58362     397.8863     251.7344
   1427.56836     399.8860     252.2883   1427.56836     399.8860     252.2883
   1427.55310     401.1296     253.1699   1427.55310     401.1296     253.1699
   1427.53784     402.6208     253.6061   1427.53784     402.6208     253.6061
   1427.52258     404.2502     254.7363   1427.52258     404.2502     254.7363
   1427.50732     405.3752     255.9810   1427.50732     405.3752     255.9810
   1427.49207     407.7816     256.5122   1427.49207     407.7816     256.5122
   1427.47681     409.6403     257.6527   1427.47681     409.6403     257.6527
   1427.46155     411.1135     258.7527   1427.46155     411.1135     258.7527
   1427.44629     412.2874     259.6065   1427.44629     412.2874     259.6065
   1427.43103     414.4343     260.6210   1427.43103     414.4343     260.6210
   1427.41577     416.7184     261.8284   1427.41577     416.7184     261.8284
   1427.40051     418.6317     263.1887   1427.40051     418.6317     263.1887
   1427.38525     420.4825     264.4522   1427.38525     420.4825     264.4522
   1427.37000     422.0294     265.2487   1427.37000     422.0294     265.2487
   1427.35474     424.4793     266.9964   1427.35474     424.4793     266.9964
   1427.33948     426.4242     268.1072   1427.33948     426.4242     268.1072
   1427.32422     427.7663     269.2623   1427.32422     427.7663     269.2623
   1427.30896     430.0191     270.8880   1427.30896     430.0191     270.8880
   1427.29370     432.6477     272.1857   1427.29370     432.6477     272.1857
   1427.27844     434.7312     273.8140   1427.27844     434.7312     273.8140
   1427.26318     437.2012     275.0712   1427.26318     437.2012     275.0712
   1427.24792     438.9869     276.7488   1427.24792     438.9869     276.7488
   1427.23267     441.5019     278.0133   1427.23267     441.5019     278.0133
   1427.21741     443.4607     279.4608   1427.21741     443.4607     279.4608
   1427.20215     446.3329     281.1698   1427.20215     446.3329     281.1698
   1427.18689     448.2795     282.3244   1427.18689     448.2795     282.3244
   1427.17163     450.7219     283.9244   1427.17163     450.7219     283.9244
   1427.15637     453.5055     286.0767   1427.15637     453.5055     286.0767
   1427.14111     455.4617     287.5369   1427.14111     455.4617     287.5369
   1427.12585     458.1973     289.1961   1427.12585     458.1973     289.1961
   1427.11060     461.2059     290.9022   1427.11060     461.2059     290.9022
   1427.09534     462.7732     292.3862   1427.09534     462.7732     292.3862
   1427.08008     465.7769     294.6165   1427.08008     465.7769     294.6165
   1427.06482     467.8950     296.1331   1427.06482     467.8950     296.1331
   1427.04956     471.0406     298.1858   1427.04956     471.0406     298.1858
   1427.03430     473.7303     299.1967   1427.03430     473.7303     299.1967
   1427.01904     476.0519     301.6912   1427.01904     476.0519     301.6912
   1427.00378     479.4505     303.1904   1427.00378     479.4505     303.1904
   1426.98853     481.6640     305.1469   1426.98853     481.6640     305.1469
   1426.97327     484.1765     307.1686   1426.97327     484.1765     307.1686
   1426.95801     486.9621     309.1562   1426.95801     486.9621     309.1562
   1426.94275     490.0584     310.1549   1426.94275     490.0584     310.1549
   1426.92749     492.4924     313.2365   1426.92749     492.4924     313.2365
   1426.91223     495.9076     314.7939   1426.91223     495.9076     314.7939
   1426.89697     498.1691     317.0858   1426.89697     498.1691     317.0858
   1426.88171     501.7863     319.0207   1426.88171     501.7863     319.0207
   1426.86646     503.9283     320.4821   1426.86646     503.9283     320.4821
   1426.85120     506.8859     322.8430   1426.85120     506.8859     322.8430
   1426.83594     509.4400     325.1459   1426.83594     509.4400     325.1459
   1426.82068     512.1437     326.6584   1426.82068     512.1437     326.6584
   1426.80542     515.3502     329.0129   1426.80542     515.3502     329.0129
   1426.79016     517.6909     331.2468   1426.79016     517.6909     331.2468
   1426.77490     521.3360     332.9064   1426.77490     521.3360     332.9064
   1426.75964     523.8219     335.2250   1426.75964     523.8219     335.2250
   1426.74438     526.7556     337.5163   1426.74438     526.7556     337.5163
   1426.72913     528.9203     339.5217   1426.72913     528.9203     339.5217
   1426.71387     532.6696     341.6104   1426.71387     532.6696     341.6104
   1426.69861     535.4543     343.9860   1426.69861     535.4543     343.9860
   1426.68335     538.1884     345.3112   1426.68335     538.1884     345.3112
   1426.66809     541.5068     347.9701   1426.66809     541.5068     347.9701
   1426.65283     544.0969     349.7251   1426.65283     544.0969     349.7251
   1426.63757     546.6295     351.6678   1426.63757     546.6295     351.6678
   1426.62231     551.1202     354.0625   1426.62231     551.1202     354.0625
   1426.60706     553.8152     356.3601   1426.60706     553.8152     356.3601
   1426.59180     555.4542     358.6609   1426.59180     555.4542     358.6609
   1426.57654     558.4673     360.4694   1426.57654     558.4673     360.4694
   1426.56128     560.7399     363.1002   1426.56128     560.7399     363.1002
   1426.54602     564.0009     365.6649   1426.54602     564.0009     365.6649
   1426.53076     566.9031     367.0228   1426.53076     566.9031     367.0228
   1426.51550     569.9661     369.1187   1426.51550     569.9661     369.1187
   1426.50024     571.6165     371.7224   1426.50024     571.6165     371.7224
   1426.48499     576.0048     373.7701   1426.48499     576.0048     373.7701
   1426.46973     578.7101     375.8875   1426.46973     578.7101     375.8875
   1426.45447     581.9680     377.9259   1426.45447     581.9680     377.9259
   1426.43921     584.2463     380.3188   1426.43921     584.2463     380.3188
   1426.42395     586.3213     382.2747   1426.42395     586.3213     382.2747
   1426.40869     589.2501     384.1826   1426.40869     589.2501     384.1826
   1426.39343     592.5919     386.6325   1426.39343     592.5919     386.6325
   1426.37817     595.0218     388.7247   1426.37817     595.0218     388.7247
   1426.36292     597.5596     390.3195   1426.36292     597.5596     390.3195
   1426.34766     600.8351     392.1961   1426.34766     600.8351     392.1961
   1426.33240     602.6602     394.0945   1426.33240     602.6602     394.0945
   1426.31714     605.9728     397.0210   1426.31714     605.9728     397.0210
   1426.30188     608.5630     398.4151   1426.30188     608.5630     398.4151
   1426.28662     611.6091     399.9235   1426.28662     611.6091     399.9235
   1426.27136     614.0889     403.1251   1426.27136     614.0889     403.1251
   1426.25610     617.4992     405.1864   1426.25610     617.4992     405.1864
   1426.24084     619.8911     405.9946   1426.24084     619.8911     405.9946
   1426.22559     622.0856     409.8635   1426.22559     622.0856     409.8635
   1426.21033     625.3022     410.5156   1426.21033     625.3022     410.5156
   1426.19507     627.9849     413.3056   1426.19507     627.9849     413.3056
   1426.17981     629.0522     415.2156   1426.17981     629.0522     415.2156
   1426.16455     632.5361     417.3672   1426.16455     632.5361     417.3672
   1426.14929     635.4315     419.1403   1426.14929     635.4315     419.1403
   1426.13403     636.8891     421.3010   1426.13403     636.8891     421.3010
   1426.11877     639.3431     423.1680   1426.11877     639.3431     423.1680
   1426.10352     643.1859     425.8475   1426.10352     643.1859     425.8475
   1426.08826     645.0264     427.0646   1426.08826     645.0264     427.0646
   1426.07300     648.0503     428.9503   1426.07300     648.0503     428.9503
   1426.05774     649.8373     431.3336   1426.05774     649.8373     431.3336
   1426.04248     651.6200     432.7929   1426.04248     651.6200     432.7929
   1426.02722     654.9487     435.3253   1426.02722     654.9487     435.3253
   1426.01196     656.8694     436.5153   1426.01196     656.8694     436.5153
   1425.99670     658.4861     438.1508   1425.99670     658.4861     438.1508
   1425.98145     661.4698     440.3622   1425.98145     661.4698     440.3622
   1425.96619     663.3986     442.3396   1425.96619     663.3986     442.3396
   1425.95093     665.0618     444.2730   1425.95093     665.0618     444.2730
   1425.93567     667.8031     445.8550   1425.93567     667.8031     445.8550
   1425.92041     670.6157     447.9152   1425.92041     670.6157     447.9152
   1425.90515     673.0713     449.1203   1425.90515     673.0713     449.1203
   1425.88989     674.4021     450.9631   1425.88989     674.4021     450.9631
   1425.87463     676.3493     453.1684   1425.87463     676.3493     453.1684
   1425.85938     679.7064     454.4963   1425.85938     679.7064     454.4963
   1425.84412     679.5659     456.7372   1425.84412     679.5659     456.7372
   1425.82886     682.5031     457.4456   1425.82886     682.5031     457.4456
   1425.81360     685.0715     459.7310   1425.81360     685.0715     459.7310
   1425.79834     686.6047     461.6196   1425.79834     686.6047     461.6196
   1425.78308     688.6266     462.3055   1425.78308     688.6266     462.3055
   1425.76782     690.0739     465.7316   1425.76782     690.0739     465.7316
   1425.75256     691.1565     465.9166   1425.75256     691.1565     465.9166
   1425.73730     694.6633     467.2221   1425.73730     694.6633     467.2221
   1425.72205     697.1155     469.3943   1425.72205     697.1155     469.3943
   1425.70679     696.9564     471.2673   1425.70679     696.9564     471.2673
   1425.69153     699.3411     471.9013   1425.69153     699.3411     471.9013
   1425.67627     701.8003     474.3650   1425.67627     701.8003     474.3650
   1425.66101     703.2759     475.5050   1425.66101     703.2759     475.5050
   1425.64575     705.3704     477.5157   1425.64575     705.3704     477.5157
   1425.63049     706.0327     477.6723   1425.63049     706.0327     477.6723
   1425.61523     707.2906     480.1153   1425.61523     707.2906     480.1153
   1425.59998     709.6105     482.2419   1425.59998     709.6105     482.2419
   1425.58472     710.4751     482.6477   1425.58472     710.4751     482.6477
   1425.56946     712.5181     483.9451   1425.56946     712.5181     483.9451
   1425.55420     714.2207     486.0562   1425.55420     714.2207     486.0562
   1425.53894     715.2540     487.0908   1425.53894     715.2540     487.0908
   1425.52368     717.7515     489.0621   1425.52368     717.7515     489.0621
   1425.50842     717.4048     490.9921   1425.50842     717.4048     490.9921
   1425.49316     718.9020     491.9799   1425.49316     718.9020     491.9799
   1425.47791     720.3664     493.0155   1425.47791     720.3664     493.0155
   1425.46265     721.8819     494.4819   1425.46265     721.8819     494.4819
   1425.44739     724.1633     495.3342   1425.44739     724.1633     495.3342
   1425.43213     725.2043     496.4348   1425.43213     725.2043     496.4348
   1425.41687     727.5264     498.1593   1425.41687     727.5264     498.1593
   1425.40161     728.1100     499.3267   1425.40161     728.1100     499.3267
   1425.38635     729.2800     500.5789   1425.38635     729.2800     500.5789
   1425.37109     729.9320     501.6792   1425.37109     729.9320     501.6792
   1425.35583     730.9973     503.2083   1425.35583     730.9973     503.2083
   1425.34058     731.9343     504.2315   1425.34058     731.9343     504.2315
   1425.32532     734.8065     505.1921   1425.32532     734.8065     505.1921
   1425.31006     734.9088     506.9893   1425.31006     734.9088     506.9893
   1425.29480     735.4949     508.6058   1425.29480     735.4949     508.6058
   1425.27954     736.3758     509.2207   1425.27954     736.3758     509.2207
   1425.26428     738.0872     510.1309   1425.26428     738.0872     510.1309
   1425.24902     739.5530     511.9901   1425.24902     739.5530     511.9901
   1425.23376     740.0316     512.5807   1425.23376     740.0316     512.5807
   1425.21851     740.6317     513.1993   1425.21851     740.6317     513.1993
   1425.20325     743.1965     515.0610   1425.20325     743.1965     515.0610
   1425.18799     742.8688     515.0584   1425.18799     742.8688     515.0584
   1425.17273     743.4031     517.5995   1425.17273     743.4031     517.5995
   1425.15747     744.8253     517.7993   1425.15747     744.8253     517.7993
   1425.14221     745.6121     518.8073   1425.14221     745.6121     518.8073
   1425.12695     746.6238     520.0290   1425.12695     746.6238     520.0290
   1425.11169     745.2493     521.7296   1425.11169     745.2493     521.7296
   1425.09644     747.7937     522.1165   1425.09644     747.7937     522.1165
   1425.08118     748.3657     523.5317   1425.08118     748.3657     523.5317
   1425.06592     749.0716     523.6058   1425.06592     749.0716     523.6058
   1425.05066     750.7361     525.0541   1425.05066     750.7361     525.0541
   1425.03540     750.0830     526.7507   1425.03540     750.0830     526.7507
   1425.02014     752.1368     526.8606   1425.02014     752.1368     526.8606
   1425.00488     751.6552     528.1425   1425.00488     751.6552     528.1425
   1424.98962     752.3292     527.8419   1424.98962     752.3292     527.8419
   1424.97437     752.7109     529.6293   1424.97437     752.7109     529.6293
   1424.95911     753.1795     530.2949   1424.95911     753.1795     530.2949
   1424.94385     754.9037     532.3264   1424.94385     754.9037     532.3264
   1424.92859     754.9326     532.4907   1424.92859     754.9326     532.4907
   1424.91333     754.9664     533.3102   1424.91333     754.9664     533.3102
   1424.89807     756.0936     533.7615   1424.89807     756.0936     533.7615
   1424.88281     756.8348     534.9915   1424.88281     756.8348     534.9915
   1424.86755     757.2584     536.5708   1424.86755     757.2584     536.5708
   1424.85229     758.1651     536.1114   1424.85229     758.1651     536.1114
   1424.83704     756.9434     536.9902   1424.83704     756.9434     536.9902
   1424.82178     757.8284     537.4425   1424.82178     757.8284     537.4425
   1424.80652     757.9758     539.3192   1424.80652     757.9758     539.3192
   1424.79126     757.9270     539.7186   1424.79126     757.9270     539.7186
   1424.77600     758.5767     540.2930   1424.77600     758.5767     540.2930
   1424.76074     758.2044     541.5811   1424.76074     758.2044     541.5811
   1424.74548     760.0152     542.6012   1424.74548     760.0152     542.6012
   1424.73022     760.3256     542.3797   1424.73022     760.3256     542.3797
   1424.71497     760.8752     543.4234   1424.71497     760.8752     543.4234
   1424.69971     760.7912     543.4312   1424.69971     760.7912     543.4312
   1424.68445     761.4723     544.8461   1424.68445     761.4723     544.8461
   1424.66919     761.6337     546.0128   1424.66919     761.6337     546.0128
   1424.65393     761.6727     546.9454   1424.65393     761.6727     546.9454
   1424.63867     761.6381     546.7437   1424.63867     761.6381     546.7437
   1424.62341     760.6929     548.1490   1424.62341     760.6929     548.1490
   1424.60815     762.5967     549.4676   1424.60815     762.5967     549.4676
   1424.59290     762.4198     549.3019   1424.59290     762.4198     549.3019
   1424.57764     761.6241     549.1815   1424.57764     761.6241     549.1815
   1424.56238     760.7128     551.4243   1424.56238     760.7128     551.4243
   1424.54712     763.8813     551.8549   1424.54712     763.8813     551.8549
   1424.53186     762.7059     551.7732   1424.53186     762.7059     551.7732
   1424.51660     763.5504     552.5079   1424.51660     763.5504     552.5079
   1424.50134     763.5390     553.6060   1424.50134     763.5390     553.6060
   1424.48608     762.0223     554.0480   1424.48608     762.0223     554.0480
   1424.47083     763.5868     554.2285   1424.47083     763.5868     554.2285
   1424.45557     763.0242     555.2211   1424.45557     763.0242     555.2211
   1424.44031     763.6292     555.3955   1424.44031     763.6292     555.3955
   1424.42505     763.7446     555.7764   1424.42505     763.7446     555.7764
   1424.40979     763.1778     556.7161   1424.40979     763.1778     556.7161
   1424.39453     762.4792     557.8442   1424.39453     762.4792     557.8442
   1424.37927     764.8221     557.6971   1424.37927     764.8221     557.6971
   1424.36401     763.7339     558.2778   1424.36401     763.7339     558.2778
   1424.34875     764.7076     558.3460   1424.34875     764.7076     558.3460
   1424.33350     763.8110     559.8797   1424.33350     763.8110     559.8797
   1424.31824     763.7169     559.7495   1424.31824     763.7169     559.7495
   1424.30298     764.1588     559.6534   1424.30298     764.1588     559.6534
   1424.28772     763.6744     561.4855   1424.28772     763.6744     561.4855
   1424.27246     763.7820     560.8881   1424.27246     763.7820     560.8881
   1424.25720     762.8720     562.3717   1424.25720     762.8720     562.3717
   1424.24194     763.2651     561.9575   1424.24194     763.2651     561.9575
   1424.22668     763.9998     563.4296   1424.22668     763.9998     563.4296
   1424.21143     763.0990     564.2399   1424.21143     763.0990     564.2399
   1424.19617     763.5128     563.8450   1424.19617     763.5128     563.8450
   1424.18091     764.3288     564.4954   1424.18091     764.3288     564.4954
   1424.16565     764.2610     565.1475   1424.16565     764.2610     565.1475
