#     FILENAME=!Skynet_57528_lach-cc-212_20620_21047.cyb.fits
#     BASENAME=Skynet_57528_lach-cc-212_20620_21047
#     SRC_NAME=lach-cc-212
#     OBSERVER=ccmadison16_9505
#     DATE_OBS=2016-05-20T20:10:51.680
#        OBSID=20620
#      SCANNUM=21047
#          MJD=57528.8419
#          UTC=72740
#     SCANTYPE=track
#     DATAMODE=HIRES
#     TUNEFREQ=1420.0000
# Actual_FREQ1=1420.0000
# Actual_FREQ2=1420.0000
#    LO1Tuning=6870.000
#     RFFILTER=1355_1435
#        OBSBW=-15.6250
#        NCHAN=1024 
#        FOCUS=37.1368
#           RA=06:49:42.32
#          DEC=00:49:43.29
#      RA(hrs)=6.828400
#     DEC(deg)=0.828700
#    AZIM(deg)=178.089
#    ELEV(deg)=52.223
#     IFattens=10.00, 9.00
#      WARNING=None
#    TCAL_XL1=7.9635
#    TCAL_YR1=9.1340
#    TCAL_XL2=7.9635
#    TCAL_YR2=9.1340
#     TRX_XL1=11.7060
#     TRX_YR1=11.7060
#     TRX_XL2=11.7060
#     TRX_YR2=11.7060
#        TAVE=1.0000
#Freq1(MHz)          XL1          YR1  Freq2(MHz)          XL2          YR2 

   1427.81250     355.7803     261.3602   1427.81250     355.7803     261.3602
   1427.79724     356.2132     262.5243   1427.79724     356.2132     262.5243
   1427.78198     356.7383     262.2570   1427.78198     356.7383     262.2570
   1427.76672     357.7561     263.4297   1427.76672     357.7561     263.4297
   1427.75146     358.5898     263.9897   1427.75146     358.5898     263.9897
   1427.73621     359.4447     264.9655   1427.73621     359.4447     264.9655
   1427.72095     360.3761     265.7295   1427.72095     360.3761     265.7295
   1427.70569     361.3291     266.6122   1427.70569     361.3291     266.6122
   1427.69043     361.8142     267.3658   1427.69043     361.8142     267.3658
   1427.67517     363.0308     268.4977   1427.67517     363.0308     268.4977
   1427.65991     364.6825     269.1415   1427.65991     364.6825     269.1415
   1427.64465     365.8967     269.7881   1427.64465     365.8967     269.7881
   1427.62939     366.8296     271.3275   1427.62939     366.8296     271.3275
   1427.61414     367.8107     271.9127   1427.61414     367.8107     271.9127
   1427.59888     369.1189     273.2657   1427.59888     369.1189     273.2657
   1427.58362     370.5049     274.6064   1427.58362     370.5049     274.6064
   1427.56836     371.6208     275.8621   1427.56836     371.6208     275.8621
   1427.55310     373.7134     276.9352   1427.55310     373.7134     276.9352
   1427.53784     374.2003     277.8555   1427.53784     374.2003     277.8555
   1427.52258     375.8249     279.5786   1427.52258     375.8249     279.5786
   1427.50732     377.7599     280.5865   1427.50732     377.7599     280.5865
   1427.49207     378.4860     282.0481   1427.49207     378.4860     282.0481
   1427.47681     380.7438     283.1052   1427.47681     380.7438     283.1052
   1427.46155     382.0280     285.1148   1427.46155     382.0280     285.1148
   1427.44629     384.2959     286.7020   1427.44629     384.2959     286.7020
   1427.43103     386.3085     287.7324   1427.43103     386.3085     287.7324
   1427.41577     387.9557     289.3890   1427.41577     387.9557     289.3890
   1427.40051     389.8478     290.8921   1427.40051     389.8478     290.8921
   1427.38525     392.0745     292.4923   1427.38525     392.0745     292.4923
   1427.37000     394.0235     294.5681   1427.37000     394.0235     294.5681
   1427.35474     394.7879     295.8293   1427.35474     394.7879     295.8293
   1427.33948     396.8449     297.2212   1427.33948     396.8449     297.2212
   1427.32422     399.6536     299.3926   1427.32422     399.6536     299.3926
   1427.30896     401.3846     301.3024   1427.30896     401.3846     301.3024
   1427.29370     403.4218     302.3107   1427.29370     403.4218     302.3107
   1427.27844     405.8388     305.0829   1427.27844     405.8388     305.0829
   1427.26318     408.1276     306.3935   1427.26318     408.1276     306.3935
   1427.24792     410.1135     308.6560   1427.24792     410.1135     308.6560
   1427.23267     411.8912     310.0632   1427.23267     411.8912     310.0632
   1427.21741     414.5901     312.1886   1427.21741     414.5901     312.1886
   1427.20215     417.0243     314.3444   1427.20215     417.0243     314.3444
   1427.18689     418.9652     316.3078   1427.18689     418.9652     316.3078
   1427.17163     421.5978     318.3819   1427.17163     421.5978     318.3819
   1427.15637     423.8969     319.7030   1427.15637     423.8969     319.7030
   1427.14111     426.5269     322.2002   1427.14111     426.5269     322.2002
   1427.12585     429.0349     324.3073   1427.12585     429.0349     324.3073
   1427.11060     430.8312     326.1390   1427.11060     430.8312     326.1390
   1427.09534     433.8114     328.0878   1427.09534     433.8114     328.0878
   1427.08008     436.6688     330.3922   1427.08008     436.6688     330.3922
   1427.06482     438.6558     332.2388   1427.06482     438.6558     332.2388
   1427.04956     440.9979     335.3245   1427.04956     440.9979     335.3245
   1427.03430     444.1839     336.6071   1427.03430     444.1839     336.6071
   1427.01904     446.5848     339.4092   1427.01904     446.5848     339.4092
   1427.00378     449.1299     341.7128   1427.00378     449.1299     341.7128
   1426.98853     451.5038     343.3988   1426.98853     451.5038     343.3988
   1426.97327     453.8560     346.1941   1426.97327     453.8560     346.1941
   1426.95801     456.4512     348.7869   1426.95801     456.4512     348.7869
   1426.94275     459.8738     351.4929   1426.94275     459.8738     351.4929
   1426.92749     461.8558     353.8622   1426.92749     461.8558     353.8622
   1426.91223     465.2119     355.8932   1426.91223     465.2119     355.8932
   1426.89697     467.1882     357.3404   1426.89697     467.1882     357.3404
   1426.88171     470.1880     360.9824   1426.88171     470.1880     360.9824
   1426.86646     472.9574     363.0908   1426.86646     472.9574     363.0908
   1426.85120     475.8808     365.5362   1426.85120     475.8808     365.5362
   1426.83594     479.1314     367.6392   1426.83594     479.1314     367.6392
   1426.82068     481.5592     370.1855   1426.82068     481.5592     370.1855
   1426.80542     484.0020     372.2866   1426.80542     484.0020     372.2866
   1426.79016     487.0631     375.3620   1426.79016     487.0631     375.3620
   1426.77490     489.5636     377.0548   1426.77490     489.5636     377.0548
   1426.75964     492.2627     379.6125   1426.75964     492.2627     379.6125
   1426.74438     494.9579     382.8616   1426.74438     494.9579     382.8616
   1426.72913     497.8505     384.9774   1426.72913     497.8505     384.9774
   1426.71387     501.1136     387.5216   1426.71387     501.1136     387.5216
   1426.69861     503.3097     389.7450   1426.69861     503.3097     389.7450
   1426.68335     506.3422     393.0410   1426.68335     506.3422     393.0410
   1426.66809     508.9324     394.6385   1426.66809     508.9324     394.6385
   1426.65283     512.3336     397.4037   1426.65283     512.3336     397.4037
   1426.63757     515.2958     399.6042   1426.63757     515.2958     399.6042
   1426.62231     516.9874     403.5179   1426.62231     516.9874     403.5179
   1426.60706     520.4866     405.3934   1426.60706     520.4866     405.3934
   1426.59180     522.9759     407.3027   1426.59180     522.9759     407.3027
   1426.57654     525.9460     410.2523   1426.57654     525.9460     410.2523
   1426.56128     529.1424     413.2227   1426.56128     529.1424     413.2227
   1426.54602     532.1384     415.2483   1426.54602     532.1384     415.2483
   1426.53076     534.9625     417.2959   1426.53076     534.9625     417.2959
   1426.51550     537.2823     420.4441   1426.51550     537.2823     420.4441
   1426.50024     539.9594     422.9984   1426.50024     539.9594     422.9984
   1426.48499     542.1112     425.0358   1426.48499     542.1112     425.0358
   1426.46973     544.7325     427.9326   1426.46973     544.7325     427.9326
   1426.45447     548.2050     430.1052   1426.45447     548.2050     430.1052
   1426.43921     550.7883     433.2286   1426.43921     550.7883     433.2286
   1426.42395     553.7260     435.2560   1426.42395     553.7260     435.2560
   1426.40869     556.6085     436.9376   1426.40869     556.6085     436.9376
   1426.39343     558.2317     440.3895   1426.39343     558.2317     440.3895
   1426.37817     560.3399     442.7118   1426.37817     560.3399     442.7118
   1426.36292     563.9368     445.5837   1426.36292     563.9368     445.5837
   1426.34766     567.0486     448.2787   1426.34766     567.0486     448.2787
   1426.33240     569.5670     449.5927   1426.33240     569.5670     449.5927
   1426.31714     572.3015     452.3307   1426.31714     572.3015     452.3307
   1426.30188     573.4143     455.1017   1426.30188     573.4143     455.1017
   1426.28662     577.1856     457.0014   1426.28662     577.1856     457.0014
   1426.27136     579.9083     459.8926   1426.27136     579.9083     459.8926
   1426.25610     581.6174     462.2860   1426.25610     581.6174     462.2860
   1426.24084     585.0795     464.4396   1426.24084     585.0795     464.4396
   1426.22559     587.0323     467.7739   1426.22559     587.0323     467.7739
   1426.21033     588.4412     469.6052   1426.21033     588.4412     469.6052
   1426.19507     590.3882     471.8389   1426.19507     590.3882     471.8389
   1426.17981     594.6055     474.7969   1426.17981     594.6055     474.7969
   1426.16455     596.5040     476.4160   1426.16455     596.5040     476.4160
   1426.14929     598.2567     479.3808   1426.14929     598.2567     479.3808
   1426.13403     600.7473     481.5327   1426.13403     600.7473     481.5327
   1426.11877     604.2454     484.0526   1426.11877     604.2454     484.0526
   1426.10352     605.7436     485.9236   1426.10352     605.7436     485.9236
   1426.08826     608.5290     487.4288   1426.08826     608.5290     487.4288
   1426.07300     610.0836     490.0062   1426.07300     610.0836     490.0062
   1426.05774     612.8796     492.4790   1426.05774     612.8796     492.4790
   1426.04248     615.9724     494.7711   1426.04248     615.9724     494.7711
   1426.02722     617.5719     496.7122   1426.02722     617.5719     496.7122
   1426.01196     617.9931     500.0030   1426.01196     617.9931     500.0030
   1425.99670     621.5546     500.9537   1425.99670     621.5546     500.9537
   1425.98145     623.3340     504.1316   1425.98145     623.3340     504.1316
   1425.96619     625.5931     506.2171   1425.96619     625.5931     506.2171
   1425.95093     627.0798     508.5151   1425.95093     627.0798     508.5151
   1425.93567     629.4900     510.4669   1425.93567     629.4900     510.4669
   1425.92041     632.2042     511.4109   1425.92041     632.2042     511.4109
   1425.90515     633.5512     513.8229   1425.90515     633.5512     513.8229
   1425.88989     636.0583     516.0815   1425.88989     636.0583     516.0815
   1425.87463     636.7313     518.2312   1425.87463     636.7313     518.2312
   1425.85938     638.8309     520.7545   1425.85938     638.8309     520.7545
   1425.84412     640.9090     523.2961   1425.84412     640.9090     523.2961
   1425.82886     642.1990     525.2844   1425.82886     642.1990     525.2844
   1425.81360     645.2454     526.8815   1425.81360     645.2454     526.8815
   1425.79834     646.2821     529.3647   1425.79834     646.2821     529.3647
   1425.78308     647.6815     530.8412   1425.78308     647.6815     530.8412
   1425.76782     649.2365     532.9716   1425.76782     649.2365     532.9716
   1425.75256     651.4137     535.2620   1425.75256     651.4137     535.2620
   1425.73730     652.8970     536.8251   1425.73730     652.8970     536.8251
   1425.72205     654.5029     537.6760   1425.72205     654.5029     537.6760
   1425.70679     655.9870     539.7462   1425.70679     655.9870     539.7462
   1425.69153     657.0502     541.9042   1425.69153     657.0502     541.9042
   1425.67627     660.2269     544.3802   1425.67627     660.2269     544.3802
   1425.66101     660.4633     545.5079   1425.66101     660.4633     545.5079
   1425.64575     661.8870     547.2307   1425.64575     661.8870     547.2307
   1425.63049     664.6605     549.2850   1425.63049     664.6605     549.2850
   1425.61523     665.3675     551.5167   1425.61523     665.3675     551.5167
   1425.59998     667.0117     552.2396   1425.59998     667.0117     552.2396
   1425.58472     667.8122     554.1879   1425.58472     667.8122     554.1879
   1425.56946     669.9052     556.8127   1425.56946     669.9052     556.8127
   1425.55420     671.4891     558.0553   1425.55420     671.4891     558.0553
   1425.53894     672.1000     559.5611   1425.53894     672.1000     559.5611
   1425.52368     672.6071     562.5471   1425.52368     672.6071     562.5471
   1425.50842     674.2358     562.4052   1425.50842     674.2358     562.4052
   1425.49316     675.6925     563.3792   1425.49316     675.6925     563.3792
   1425.47791     676.4679     566.1622   1425.47791     676.4679     566.1622
   1425.46265     677.4816     567.5774   1425.46265     677.4816     567.5774
   1425.44739     679.4827     568.8536   1425.44739     679.4827     568.8536
   1425.43213     681.3815     570.3331   1425.43213     681.3815     570.3331
   1425.41687     680.6816     573.8690   1425.41687     680.6816     573.8690
   1425.40161     682.4350     572.4992   1425.40161     682.4350     572.4992
   1425.38635     683.3151     575.3620   1425.38635     683.3151     575.3620
   1425.37109     684.2595     576.7777   1425.37109     684.2595     576.7777
   1425.35583     686.6382     578.4557   1425.35583     686.6382     578.4557
   1425.34058     686.6927     579.5580   1425.34058     686.6927     579.5580
   1425.32532     687.2416     581.3085   1425.32532     687.2416     581.3085
   1425.31006     688.9607     583.2222   1425.31006     688.9607     583.2222
   1425.29480     688.7804     584.2226   1425.29480     688.7804     584.2226
   1425.27954     689.4802     585.0706   1425.27954     689.4802     585.0706
   1425.26428     690.8901     587.5440   1425.26428     690.8901     587.5440
   1425.24902     690.9183     588.2677   1425.24902     690.9183     588.2677
   1425.23376     692.0820     589.1010   1425.23376     692.0820     589.1010
   1425.21851     691.9277     591.8076   1425.21851     691.9277     591.8076
   1425.20325     694.4130     590.5609   1425.20325     694.4130     590.5609
   1425.18799     694.1660     593.6150   1425.18799     694.1660     593.6150
   1425.17273     695.7992     593.9750   1425.17273     695.7992     593.9750
   1425.15747     695.9766     595.3617   1425.15747     695.9766     595.3617
   1425.14221     696.4564     596.8546   1425.14221     696.4564     596.8546
   1425.12695     696.7557     597.5757   1425.12695     696.7557     597.5757
   1425.11169     696.3533     598.9815   1425.11169     696.3533     598.9815
   1425.09644     697.7214     599.4171   1425.09644     697.7214     599.4171
   1425.08118     699.3824     600.2516   1425.08118     699.3824     600.2516
   1425.06592     699.2596     601.7070   1425.06592     699.2596     601.7070
   1425.05066     699.4600     602.6323   1425.05066     699.4600     602.6323
   1425.03540     698.4774     603.7957   1425.03540     698.4774     603.7957
   1425.02014     700.5497     606.1804   1425.02014     700.5497     606.1804
   1425.00488     700.6216     605.7692   1425.00488     700.6216     605.7692
   1424.98962     701.3416     606.5234   1424.98962     701.3416     606.5234
   1424.97437     701.7983     608.8881   1424.97437     701.7983     608.8881
   1424.95911     701.9848     608.5119   1424.95911     701.9848     608.5119
   1424.94385     702.4417     610.3234   1424.94385     702.4417     610.3234
   1424.92859     702.2441     610.6773   1424.92859     702.2441     610.6773
   1424.91333     703.6461     610.2081   1424.91333     703.6461     610.2081
   1424.89807     702.9870     611.8093   1424.89807     702.9870     611.8093
   1424.88281     703.4394     612.5123   1424.88281     703.4394     612.5123
   1424.86755     705.0901     613.7360   1424.86755     705.0901     613.7360
   1424.85229     705.0849     614.4460   1424.85229     705.0849     614.4460
   1424.83704     704.8510     616.1554   1424.83704     704.8510     616.1554
   1424.82178     704.4713     616.5158   1424.82178     704.4713     616.5158
   1424.80652     706.3633     617.3558   1424.80652     706.3633     617.3558
   1424.79126     705.9994     618.1413   1424.79126     705.9994     618.1413
   1424.77600     705.7538     619.2910   1424.77600     705.7538     619.2910
   1424.76074     706.3365     618.3309   1424.76074     706.3365     618.3309
   1424.74548     705.8990     619.9665   1424.74548     705.8990     619.9665
   1424.73022     706.1221     620.6618   1424.73022     706.1221     620.6618
   1424.71497     706.5193     620.4351   1424.71497     706.5193     620.4351
   1424.69971     706.9089     621.8455   1424.69971     706.9089     621.8455
   1424.68445     706.0211     623.6216   1424.68445     706.0211     623.6216
   1424.66919     706.9442     622.4807   1424.66919     706.9442     622.4807
   1424.65393     705.9188     622.9796   1424.65393     705.9188     622.9796
   1424.63867     706.3388     624.9613   1424.63867     706.3388     624.9613
   1424.62341     706.5956     625.1152   1424.62341     706.5956     625.1152
   1424.60815     705.8605     625.0925   1424.60815     705.8605     625.0925
   1424.59290     706.3235     625.1282   1424.59290     706.3235     625.1282
   1424.57764     706.4472     626.7996   1424.57764     706.4472     626.7996
   1424.56238     705.7881     626.7399   1424.56238     705.7881     626.7399
   1424.54712     707.1781     627.3694   1424.54712     707.1781     627.3694
   1424.53186     705.8436     627.8800   1424.53186     705.8436     627.8800
   1424.51660     705.7429     628.1837   1424.51660     705.7429     628.1837
   1424.50134     705.9054     629.0149   1424.50134     705.9054     629.0149
   1424.48608     706.8845     629.4804   1424.48608     706.8845     629.4804
   1424.47083     707.1353     628.9782   1424.47083     707.1353     628.9782
   1424.45557     706.5986     629.0124   1424.45557     706.5986     629.0124
   1424.44031     706.0071     630.6546   1424.44031     706.0071     630.6546
   1424.42505     705.8901     631.2766   1424.42505     705.8901     631.2766
   1424.40979     705.2634     630.2949   1424.40979     705.2634     630.2949
   1424.39453     706.2155     630.6035   1424.39453     706.2155     630.6035
   1424.37927     704.9584     631.5409   1424.37927     704.9584     631.5409
   1424.36401     705.2535     631.6187   1424.36401     705.2535     631.6187
   1424.34875     705.9086     631.8253   1424.34875     705.9086     631.8253
   1424.33350     705.7484     631.9975   1424.33350     705.7484     631.9975
   1424.31824     705.5128     632.0040   1424.31824     705.5128     632.0040
   1424.30298     705.5483     632.6107   1424.30298     705.5483     632.6107
   1424.28772     704.4130     634.0682   1424.28772     704.4130     634.0682
   1424.27246     704.7704     632.5177   1424.27246     704.7704     632.5177
   1424.25720     705.1638     633.8915   1424.25720     705.1638     633.8915
   1424.24194     703.6979     633.9705   1424.24194     703.6979     633.9705
   1424.22668     702.7257     633.3904   1424.22668     702.7257     633.3904
   1424.21143     703.0342     634.2311   1424.21143     703.0342     634.2311
   1424.19617     704.4446     633.3629   1424.19617     704.4446     633.3629
   1424.18091     703.1611     634.2055   1424.18091     703.1611     634.2055
   1424.16565     703.1536     634.4008   1424.16565     703.1536     634.4008
