#     FILENAME=!Skynet_57528_lach-cc-90_20541_20936.cyb.fits
#     BASENAME=Skynet_57528_lach-cc-90_20541_20936
#     SRC_NAME=lach-cc-90
#     OBSERVER=ccmadison16_9505
#     DATE_OBS=2016-05-20T16:21:31.430
#        OBSID=20541
#      SCANNUM=20936
#          MJD=57528.6827
#          UTC=58980
#     SCANTYPE=track
#     DATAMODE=HIRES
#     TUNEFREQ=1420.0000
# Actual_FREQ1=1420.0000
# Actual_FREQ2=1420.0000
#    LO1Tuning=6870.000
#     RFFILTER=1355_1435
#        OBSBW=-15.6250
#        NCHAN=1024 
#        FOCUS=37.0709
#           RA=21:11:58.22
#          DEC=48:19:45.77
#      RA(hrs)=21.199500
#     DEC(deg)=48.329400
#    AZIM(deg)=309.584
#    ELEV(deg)=29.844
#     IFattens=11.00, 9.00
#      WARNING=None
#    TCAL_XL1=7.9635
#    TCAL_YR1=9.1340
#    TCAL_XL2=7.9635
#    TCAL_YR2=9.1340
#     TRX_XL1=11.7060
#     TRX_YR1=11.7060
#     TRX_XL2=11.7060
#     TRX_YR2=11.7060
#        TAVE=1.0000
#Freq1(MHz)          XL1          YR1  Freq2(MHz)          XL2          YR2 

   1427.81250     377.9080     243.5621   1427.81250     377.9080     243.5621
   1427.79724     378.9501     243.8703   1427.79724     378.9501     243.8703
   1427.78198     378.9552     243.9574   1427.78198     378.9552     243.9574
   1427.76672     379.7536     245.1062   1427.76672     379.7536     245.1062
   1427.75146     380.9340     245.9470   1427.75146     380.9340     245.9470
   1427.73621     381.6638     246.1660   1427.73621     381.6638     246.1660
   1427.72095     382.9986     247.0027   1427.72095     382.9986     247.0027
   1427.70569     383.1354     247.6878   1427.70569     383.1354     247.6878
   1427.69043     384.6396     248.2284   1427.69043     384.6396     248.2284
   1427.67517     386.4128     248.7699   1427.67517     386.4128     248.7699
   1427.65991     387.1773     249.9172   1427.65991     387.1773     249.9172
   1427.64465     387.7879     250.8397   1427.64465     387.7879     250.8397
   1427.62939     389.4399     251.9552   1427.62939     389.4399     251.9552
   1427.61414     391.1195     252.5990   1427.61414     391.1195     252.5990
   1427.59888     392.1579     253.7729   1427.59888     392.1579     253.7729
   1427.58362     393.6901     254.8518   1427.58362     393.6901     254.8518
   1427.56836     395.3631     256.0090   1427.56836     395.3631     256.0090
   1427.55310     396.4378     257.0034   1427.55310     396.4378     257.0034
   1427.53784     397.5502     257.9032   1427.53784     397.5502     257.9032
   1427.52258     399.8081     259.0197   1427.52258     399.8081     259.0197
   1427.50732     401.1563     259.8046   1427.50732     401.1563     259.8046
   1427.49207     403.4553     261.7216   1427.49207     403.4553     261.7216
   1427.47681     404.7232     262.7145   1427.47681     404.7232     262.7145
   1427.46155     407.3152     264.0225   1427.46155     407.3152     264.0225
   1427.44629     408.9510     265.2321   1427.44629     408.9510     265.2321
   1427.43103     410.5193     266.6223   1427.43103     410.5193     266.6223
   1427.41577     412.6942     267.8090   1427.41577     412.6942     267.8090
   1427.40051     414.4881     269.0529   1427.40051     414.4881     269.0529
   1427.38525     416.6478     270.7934   1427.38525     416.6478     270.7934
   1427.37000     418.7621     271.7621   1427.37000     418.7621     271.7621
   1427.35474     420.9656     273.2899   1427.35474     420.9656     273.2899
   1427.33948     422.6562     275.3880   1427.33948     422.6562     275.3880
   1427.32422     425.0962     276.6360   1427.32422     425.0962     276.6360
   1427.30896     427.2812     277.9094   1427.30896     427.2812     277.9094
   1427.29370     429.3286     279.0288   1427.29370     429.3286     279.0288
   1427.27844     432.4904     281.5116   1427.27844     432.4904     281.5116
   1427.26318     435.1383     282.7327   1427.26318     435.1383     282.7327
   1427.24792     437.0650     284.0557   1427.24792     437.0650     284.0557
   1427.23267     439.4305     285.9182   1427.23267     439.4305     285.9182
   1427.21741     441.5938     287.5403   1427.21741     441.5938     287.5403
   1427.20215     443.7986     288.5737   1427.20215     443.7986     288.5737
   1427.18689     447.3184     291.3246   1427.18689     447.3184     291.3246
   1427.17163     449.2017     292.8810   1427.17163     449.2017     292.8810
   1427.15637     452.2454     294.8568   1427.15637     452.2454     294.8568
   1427.14111     454.2994     296.0711   1427.14111     454.2994     296.0711
   1427.12585     456.3725     297.8217   1427.12585     456.3725     297.8217
   1427.11060     459.9989     300.5695   1427.11060     459.9989     300.5695
   1427.09534     463.1066     301.6250   1427.09534     463.1066     301.6250
   1427.08008     465.6324     304.0838   1427.08008     465.6324     304.0838
   1427.06482     468.0121     305.7851   1427.06482     468.0121     305.7851
   1427.04956     470.8790     307.9163   1427.04956     470.8790     307.9163
   1427.03430     473.9029     309.3810   1427.03430     473.9029     309.3810
   1427.01904     476.6136     310.7914   1427.01904     476.6136     310.7914
   1427.00378     479.9832     313.2591   1427.00378     479.9832     313.2591
   1426.98853     483.2463     315.1041   1426.98853     483.2463     315.1041
   1426.97327     485.2341     317.5723   1426.97327     485.2341     317.5723
   1426.95801     488.0959     319.0882   1426.95801     488.0959     319.0882
   1426.94275     491.9312     320.7956   1426.94275     491.9312     320.7956
   1426.92749     494.9903     322.9070   1426.92749     494.9903     322.9070
   1426.91223     497.4191     324.4518   1426.91223     497.4191     324.4518
   1426.89697     500.4103     326.9480   1426.89697     500.4103     326.9480
   1426.88171     504.2789     329.2877   1426.88171     504.2789     329.2877
   1426.86646     506.3944     331.4608   1426.86646     506.3944     331.4608
   1426.85120     509.3658     333.4581   1426.85120     509.3658     333.4581
   1426.83594     513.1245     334.7394   1426.83594     513.1245     334.7394
   1426.82068     515.6204     337.6653   1426.82068     515.6204     337.6653
   1426.80542     519.5387     339.9029   1426.80542     519.5387     339.9029
   1426.79016     522.7620     341.6507   1426.79016     522.7620     341.6507
   1426.77490     525.4055     343.5413   1426.77490     525.4055     343.5413
   1426.75964     528.3361     345.9435   1426.75964     528.3361     345.9435
   1426.74438     531.8840     347.2628   1426.74438     531.8840     347.2628
   1426.72913     534.3160     349.9056   1426.72913     534.3160     349.9056
   1426.71387     537.8609     351.6845   1426.71387     537.8609     351.6845
   1426.69861     541.1043     354.5617   1426.69861     541.1043     354.5617
   1426.68335     543.8267     355.4399   1426.68335     543.8267     355.4399
   1426.66809     546.9275     358.4578   1426.66809     546.9275     358.4578
   1426.65283     550.2650     360.0573   1426.65283     550.2650     360.0573
   1426.63757     553.9271     362.3956   1426.63757     553.9271     362.3956
   1426.62231     556.5331     367.0992   1426.62231     556.5331     367.0992
   1426.60706     559.2911     367.1798   1426.60706     559.2911     367.1798
   1426.59180     562.6909     368.9348   1426.59180     562.6909     368.9348
   1426.57654     565.9344     370.0465   1426.57654     565.9344     370.0465
   1426.56128     569.4614     372.5475   1426.56128     569.4614     372.5475
   1426.54602     572.7475     374.5699   1426.54602     572.7475     374.5699
   1426.53076     575.8404     375.9868   1426.53076     575.8404     375.9868
   1426.51550     578.5538     378.4329   1426.51550     578.5538     378.4329
   1426.50024     581.2657     380.9435   1426.50024     581.2657     380.9435
   1426.48499     584.8273     382.9777   1426.48499     584.8273     382.9777
   1426.46973     588.1989     384.2380   1426.46973     588.1989     384.2380
   1426.45447     590.7920     386.6339   1426.45447     590.7920     386.6339
   1426.43921     593.8425     389.3016   1426.43921     593.8425     389.3016
   1426.42395     597.0778     390.4961   1426.42395     597.0778     390.4961
   1426.40869     599.5387     392.6190   1426.40869     599.5387     392.6190
   1426.39343     602.0889     394.4413   1426.39343     602.0889     394.4413
   1426.37817     605.2236     396.4849   1426.37817     605.2236     396.4849
   1426.36292     608.9831     399.2762   1426.36292     608.9831     399.2762
   1426.34766     611.7734     400.9049   1426.34766     611.7734     400.9049
   1426.33240     614.5602     402.2248   1426.33240     614.5602     402.2248
   1426.31714     616.6351     404.7641   1426.31714     616.6351     404.7641
   1426.30188     619.8552     406.4227   1426.30188     619.8552     406.4227
   1426.28662     622.7825     408.3227   1426.28662     622.7825     408.3227
   1426.27136     625.3055     409.8240   1426.27136     625.3055     409.8240
   1426.25610     628.5549     412.6318   1426.25610     628.5549     412.6318
   1426.24084     631.6503     414.1769   1426.24084     631.6503     414.1769
   1426.22559     634.6585     416.3599   1426.22559     634.6585     416.3599
   1426.21033     636.9255     417.7024   1426.21033     636.9255     417.7024
   1426.19507     639.7539     419.6236   1426.19507     639.7539     419.6236
   1426.17981     642.6708     421.8745   1426.17981     642.6708     421.8745
   1426.16455     645.1965     423.1295   1426.16455     645.1965     423.1295
   1426.14929     648.9213     425.3700   1426.14929     648.9213     425.3700
   1426.13403     651.1693     427.2690   1426.13403     651.1693     427.2690
   1426.11877     653.6064     428.1185   1426.11877     653.6064     428.1185
   1426.10352     656.8401     430.4576   1426.10352     656.8401     430.4576
   1426.08826     658.1118     432.7340   1426.08826     658.1118     432.7340
   1426.07300     661.4120     434.5744   1426.07300     661.4120     434.5744
   1426.05774     664.1025     436.0973   1426.05774     664.1025     436.0973
   1426.04248     666.0311     437.2794   1426.04248     666.0311     437.2794
   1426.02722     667.8254     439.0551   1426.02722     667.8254     439.0551
   1426.01196     670.5961     440.7171   1426.01196     670.5961     440.7171
   1425.99670     672.6889     442.4879   1425.99670     672.6889     442.4879
   1425.98145     677.0261     444.2616   1425.98145     677.0261     444.2616
   1425.96619     678.6614     444.9091   1425.96619     678.6614     444.9091
   1425.95093     681.5008     446.7475   1425.95093     681.5008     446.7475
   1425.93567     683.8116     448.5415   1425.93567     683.8116     448.5415
   1425.92041     684.5245     450.3413   1425.92041     684.5245     450.3413
   1425.90515     687.5569     451.8744   1425.90515     687.5569     451.8744
   1425.88989     690.6766     453.7050   1425.88989     690.6766     453.7050
   1425.87463     691.8548     455.3525   1425.87463     691.8548     455.3525
   1425.85938     694.1218     456.2465   1425.85938     694.1218     456.2465
   1425.84412     697.2980     458.8479   1425.84412     697.2980     458.8479
   1425.82886     697.7156     459.7672   1425.82886     697.7156     459.7672
   1425.81360     699.5459     461.6415   1425.81360     699.5459     461.6415
   1425.79834     703.0179     462.5111   1425.79834     703.0179     462.5111
   1425.78308     704.3445     463.9138   1425.78308     704.3445     463.9138
   1425.76782     707.3947     465.8965   1425.76782     707.3947     465.8965
   1425.75256     708.6039     466.8389   1425.75256     708.6039     466.8389
   1425.73730     710.4215     468.6138   1425.73730     710.4215     468.6138
   1425.72205     711.2457     470.8192   1425.72205     711.2457     470.8192
   1425.70679     713.6993     471.9498   1425.70679     713.6993     471.9498
   1425.69153     716.3379     472.3730   1425.69153     716.3379     472.3730
   1425.67627     716.6736     474.2598   1425.67627     716.6736     474.2598
   1425.66101     718.1279     475.9480   1425.66101     718.1279     475.9480
   1425.64575     722.0458     476.5777   1425.64575     722.0458     476.5777
   1425.63049     722.4879     478.5388   1425.63049     722.4879     478.5388
   1425.61523     723.6045     479.9247   1425.61523     723.6045     479.9247
   1425.59998     726.2595     481.1159   1425.59998     726.2595     481.1159
   1425.58472     727.3411     482.2852   1425.58472     727.3411     482.2852
   1425.56946     728.8110     483.5411   1425.56946     728.8110     483.5411
   1425.55420     730.1089     484.6375   1425.55420     730.1089     484.6375
   1425.53894     732.4986     485.6040   1425.53894     732.4986     485.6040
   1425.52368     733.1530     486.9395   1425.52368     733.1530     486.9395
   1425.50842     734.8407     488.7199   1425.50842     734.8407     488.7199
   1425.49316     737.1269     490.3902   1425.49316     737.1269     490.3902
   1425.47791     737.3597     490.4384   1425.47791     737.3597     490.4384
   1425.46265     739.5845     492.4100   1425.46265     739.5845     492.4100
   1425.44739     741.5128     493.1043   1425.44739     741.5128     493.1043
   1425.43213     741.2944     493.9949   1425.43213     741.2944     493.9949
   1425.41687     744.2949     496.2108   1425.41687     744.2949     496.2108
   1425.40161     744.2734     496.7675   1425.40161     744.2734     496.7675
   1425.38635     745.3281     498.4772   1425.38635     745.3281     498.4772
   1425.37109     746.4570     498.9226   1425.37109     746.4570     498.9226
   1425.35583     747.3417     499.4815   1425.35583     747.3417     499.4815
   1425.34058     748.4102     501.0165   1425.34058     748.4102     501.0165
   1425.32532     749.3959     502.4655   1425.32532     749.3959     502.4655
   1425.31006     750.6732     502.7520   1425.31006     750.6732     502.7520
   1425.29480     750.7396     503.7962   1425.29480     750.7396     503.7962
   1425.27954     753.4423     505.4259   1425.27954     753.4423     505.4259
   1425.26428     753.9980     506.9780   1425.26428     753.9980     506.9780
   1425.24902     754.0195     506.8166   1425.24902     754.0195     506.8166
   1425.23376     754.6747     508.4785   1425.23376     754.6747     508.4785
   1425.21851     756.0262     509.5648   1425.21851     756.0262     509.5648
   1425.20325     757.6646     510.6900   1425.20325     757.6646     510.6900
   1425.18799     758.0020     511.4274   1425.18799     758.0020     511.4274
   1425.17273     758.8782     511.9245   1425.17273     758.8782     511.9245
   1425.15747     759.2864     513.1661   1425.15747     759.2864     513.1661
   1425.14221     760.6108     514.3791   1425.14221     760.6108     514.3791
   1425.12695     760.9222     514.4446   1425.12695     760.9222     514.4446
   1425.11169     762.2695     516.2742   1425.11169     762.2695     516.2742
   1425.09644     763.0041     517.1381   1425.09644     763.0041     517.1381
   1425.08118     761.9377     517.4896   1425.08118     761.9377     517.4896
   1425.06592     764.1539     518.1847   1425.06592     764.1539     518.1847
   1425.05066     763.6540     519.0237   1425.05066     763.6540     519.0237
   1425.03540     764.2355     520.0683   1425.03540     764.2355     520.0683
   1425.02014     765.8228     520.7370   1425.02014     765.8228     520.7370
   1425.00488     765.5649     521.5847   1425.00488     765.5649     521.5847
   1424.98962     766.5768     522.8391   1424.98962     766.5768     522.8391
   1424.97437     767.0162     523.5997   1424.97437     767.0162     523.5997
   1424.95911     767.1437     524.5833   1424.95911     767.1437     524.5833
   1424.94385     767.7527     525.7160   1424.94385     767.7527     525.7160
   1424.92859     768.4836     525.6683   1424.92859     768.4836     525.6683
   1424.91333     767.3795     526.7941   1424.91333     767.3795     526.7941
   1424.89807     768.6559     528.2744   1424.89807     768.6559     528.2744
   1424.88281     768.8104     528.6163   1424.88281     768.8104     528.6163
   1424.86755     769.5168     528.4441   1424.86755     769.5168     528.4441
   1424.85229     769.4213     529.0684   1424.85229     769.4213     529.0684
   1424.83704     770.6532     530.4050   1424.83704     770.6532     530.4050
   1424.82178     768.9918     530.0977   1424.82178     768.9918     530.0977
   1424.80652     769.6122     531.1294   1424.80652     769.6122     531.1294
   1424.79126     769.8139     532.2363   1424.79126     769.8139     532.2363
   1424.77600     771.3884     532.8135   1424.77600     771.3884     532.8135
   1424.76074     771.6813     534.0190   1424.76074     771.6813     534.0190
   1424.74548     771.5253     535.2009   1424.74548     771.5253     535.2009
   1424.73022     772.6542     535.9471   1424.73022     772.6542     535.9471
   1424.71497     771.1353     535.4858   1424.71497     771.1353     535.4858
   1424.69971     771.8688     536.6087   1424.69971     771.8688     536.6087
   1424.68445     773.1747     537.4294   1424.68445     773.1747     537.4294
   1424.66919     771.7985     537.2420   1424.66919     771.7985     537.2420
   1424.65393     771.5103     538.8137   1424.65393     771.5103     538.8137
   1424.63867     770.8360     538.7537   1424.63867     770.8360     538.7537
   1424.62341     771.1092     538.9703   1424.62341     771.1092     538.9703
   1424.60815     773.3230     539.5887   1424.60815     773.3230     539.5887
   1424.59290     772.1152     540.3232   1424.59290     772.1152     540.3232
   1424.57764     771.9254     540.8214   1424.57764     771.9254     540.8214
   1424.56238     773.4433     541.1807   1424.56238     773.4433     541.1807
   1424.54712     771.2845     541.8114   1424.54712     771.2845     541.8114
   1424.53186     771.9662     543.2826   1424.53186     771.9662     543.2826
   1424.51660     772.5489     543.6536   1424.51660     772.5489     543.6536
   1424.50134     771.5131     543.7423   1424.50134     771.5131     543.7423
   1424.48608     773.8828     544.3443   1424.48608     773.8828     544.3443
   1424.47083     772.9440     544.4764   1424.47083     772.9440     544.4764
   1424.45557     771.6127     544.8255   1424.45557     771.6127     544.8255
   1424.44031     773.6193     545.6152   1424.44031     773.6193     545.6152
   1424.42505     771.8271     546.8781   1424.42505     771.8271     546.8781
   1424.40979     772.2938     546.5604   1424.40979     772.2938     546.5604
   1424.39453     771.9780     546.6329   1424.39453     771.9780     546.6329
   1424.37927     770.8477     547.7219   1424.37927     770.8477     547.7219
   1424.36401     771.0526     547.2406   1424.36401     771.0526     547.2406
   1424.34875     771.6346     548.7750   1424.34875     771.6346     548.7750
   1424.33350     771.4079     548.5101   1424.33350     771.4079     548.5101
   1424.31824     771.4147     548.5045   1424.31824     771.4147     548.5045
   1424.30298     770.7228     550.1746   1424.30298     770.7228     550.1746
   1424.28772     770.9545     549.7792   1424.28772     770.9545     549.7792
   1424.27246     770.2545     549.6719   1424.27246     770.2545     549.6719
   1424.25720     769.2008     550.6130   1424.25720     769.2008     550.6130
   1424.24194     769.0654     550.6597   1424.24194     769.0654     550.6597
   1424.22668     770.8240     550.7665   1424.22668     770.8240     550.7665
   1424.21143     770.6055     551.4496   1424.21143     770.6055     551.4496
   1424.19617     770.2307     552.1060   1424.19617     770.2307     552.1060
   1424.18091     768.2714     551.9207   1424.18091     768.2714     551.9207
   1424.16565     769.1361     552.5911   1424.16565     769.1361     552.5911
