#     FILENAME=!Skynet_57528_lach-hhg-131_20433_20955.cyb.fits
#     BASENAME=Skynet_57528_lach-hhg-131_20433_20955
#     SRC_NAME=lach-hhg-131
#     OBSERVER=hhgmadison16_9500
#     DATE_OBS=2016-05-20T16:59:31.500
#        OBSID=20433
#      SCANNUM=20955
#          MJD=57528.7090
#          UTC=61259
#     SCANTYPE=track
#     DATAMODE=HIRES
#     TUNEFREQ=1420.0000
# Actual_FREQ1=1420.0000
# Actual_FREQ2=1420.0000
#    LO1Tuning=6870.000
#     RFFILTER=1355_1435
#        OBSBW=-15.6250
#        NCHAN=1024 
#        FOCUS=37.0709
#           RA=02:00:30.97
#          DEC=61:47:08.94
#      RA(hrs)=2.008600
#     DEC(deg)=61.785800
#    AZIM(deg)=335.524
#    ELEV(deg)=62.419
#     IFattens=10.00, 9.00
#      WARNING=None
#    TCAL_XL1=7.9635
#    TCAL_YR1=9.1340
#    TCAL_XL2=7.9635
#    TCAL_YR2=9.1340
#     TRX_XL1=11.7060
#     TRX_YR1=11.7060
#     TRX_XL2=11.7060
#     TRX_YR2=11.7060
#        TAVE=1.0000
#Freq1(MHz)          XL1          YR1  Freq2(MHz)          XL2          YR2 

   1427.81250     379.3128     290.8332   1427.81250     379.3128     290.8332
   1427.79724     379.6131     292.1688   1427.79724     379.6131     292.1688
   1427.78198     380.3294     292.7680   1427.78198     380.3294     292.7680
   1427.76672     380.6787     294.2086   1427.76672     380.6787     294.2086
   1427.75146     381.8813     295.1376   1427.75146     381.8813     295.1376
   1427.73621     383.2360     296.1819   1427.73621     383.2360     296.1819
   1427.72095     382.8395     297.5674   1427.72095     382.8395     297.5674
   1427.70569     384.6151     298.4057   1427.70569     384.6151     298.4057
   1427.69043     385.8163     299.5294   1427.69043     385.8163     299.5294
   1427.67517     386.6824     300.9940   1427.67517     386.6824     300.9940
   1427.65991     387.9143     302.5754   1427.65991     387.9143     302.5754
   1427.64465     389.0359     303.8273   1427.64465     389.0359     303.8273
   1427.62939     390.1378     305.9000   1427.62939     390.1378     305.9000
   1427.61414     391.5943     306.3978   1427.61414     391.5943     306.3978
   1427.59888     393.7211     307.6577   1427.59888     393.7211     307.6577
   1427.58362     394.4194     310.0997   1427.58362     394.4194     310.0997
   1427.56836     396.3069     310.8457   1427.56836     396.3069     310.8457
   1427.55310     397.9883     312.8817   1427.55310     397.9883     312.8817
   1427.53784     399.0852     314.3776   1427.53784     399.0852     314.3776
   1427.52258     401.5948     315.9886   1427.52258     401.5948     315.9886
   1427.50732     403.4525     317.8919   1427.50732     403.4525     317.8919
   1427.49207     404.2940     319.3469   1427.49207     404.2940     319.3469
   1427.47681     405.9352     321.3866   1427.47681     405.9352     321.3866
   1427.46155     407.8365     323.3054   1427.46155     407.8365     323.3054
   1427.44629     410.0780     325.1048   1427.44629     410.0780     325.1048
   1427.43103     411.5300     326.8570   1427.43103     411.5300     326.8570
   1427.41577     413.8467     328.8343   1427.41577     413.8467     328.8343
   1427.40051     416.3408     330.6184   1427.40051     416.3408     330.6184
   1427.38525     418.0522     332.5562   1427.38525     418.0522     332.5562
   1427.37000     420.2590     334.4680   1427.37000     420.2590     334.4680
   1427.35474     422.4906     336.9835   1427.35474     422.4906     336.9835
   1427.33948     424.1171     338.2165   1427.33948     424.1171     338.2165
   1427.32422     426.1416     340.8549   1427.32422     426.1416     340.8549
   1427.30896     428.0204     342.6484   1427.30896     428.0204     342.6484
   1427.29370     431.2782     344.6681   1427.29370     431.2782     344.6681
   1427.27844     433.0688     347.0294   1427.27844     433.0688     347.0294
   1427.26318     435.9031     349.0964   1427.26318     435.9031     349.0964
   1427.24792     438.3020     351.2867   1427.24792     438.3020     351.2867
   1427.23267     440.8448     354.0586   1427.23267     440.8448     354.0586
   1427.21741     443.9001     356.3813   1427.21741     443.9001     356.3813
   1427.20215     445.6837     358.2784   1427.20215     445.6837     358.2784
   1427.18689     448.6740     361.1575   1427.18689     448.6740     361.1575
   1427.17163     451.0174     362.9849   1427.17163     451.0174     362.9849
   1427.15637     455.0764     365.7296   1427.15637     455.0764     365.7296
   1427.14111     457.2722     368.1119   1427.14111     457.2722     368.1119
   1427.12585     459.9226     369.9352   1427.12585     459.9226     369.9352
   1427.11060     462.7665     372.4267   1427.11060     462.7665     372.4267
   1427.09534     465.8903     375.4482   1427.09534     465.8903     375.4482
   1427.08008     468.3625     378.0590   1427.08008     468.3625     378.0590
   1427.06482     471.3715     380.1917   1427.06482     471.3715     380.1917
   1427.04956     474.0589     382.9219   1427.04956     474.0589     382.9219
   1427.03430     476.3523     385.0902   1427.03430     476.3523     385.0902
   1427.01904     479.9368     388.0293   1427.01904     479.9368     388.0293
   1427.00378     483.0780     389.4921   1427.00378     483.0780     389.4921
   1426.98853     485.2061     392.4099   1426.98853     485.2061     392.4099
   1426.97327     488.5117     395.4721   1426.97327     488.5117     395.4721
   1426.95801     492.1158     398.1006   1426.95801     492.1158     398.1006
   1426.94275     494.7301     400.5539   1426.94275     494.7301     400.5539
   1426.92749     497.5697     402.6591   1426.92749     497.5697     402.6591
   1426.91223     500.7522     406.1263   1426.91223     500.7522     406.1263
   1426.89697     504.3225     408.0159   1426.89697     504.3225     408.0159
   1426.88171     507.6597     411.4075   1426.88171     507.6597     411.4075
   1426.86646     510.1750     413.2717   1426.86646     510.1750     413.2717
   1426.85120     513.9016     416.0244   1426.85120     513.9016     416.0244
   1426.83594     517.8837     419.0016   1426.83594     517.8837     419.0016
   1426.82068     520.8983     421.4491   1426.82068     520.8983     421.4491
   1426.80542     523.6254     424.2125   1426.80542     523.6254     424.2125
   1426.79016     525.9265     427.1001   1426.79016     525.9265     427.1001
   1426.77490     529.5881     430.2361   1426.77490     529.5881     430.2361
   1426.75964     533.3206     432.8286   1426.75964     533.3206     432.8286
   1426.74438     536.0462     434.5757   1426.74438     536.0462     434.5757
   1426.72913     539.6819     437.3997   1426.72913     539.6819     437.3997
   1426.71387     541.9396     440.4640   1426.71387     541.9396     440.4640
   1426.69861     545.1131     443.0032   1426.69861     545.1131     443.0032
   1426.68335     549.3400     445.9520   1426.68335     549.3400     445.9520
   1426.66809     553.0146     448.8767   1426.66809     553.0146     448.8767
   1426.65283     556.3284     450.9170   1426.65283     556.3284     450.9170
   1426.63757     559.4787     454.4580   1426.63757     559.4787     454.4580
   1426.62231     563.8383     457.8625   1426.62231     563.8383     457.8625
   1426.60706     566.1580     459.5440   1426.60706     566.1580     459.5440
   1426.59180     569.0785     461.4637   1426.59180     569.0785     461.4637
   1426.57654     571.9117     464.8652   1426.57654     571.9117     464.8652
   1426.56128     575.3057     467.6026   1426.56128     575.3057     467.6026
   1426.54602     578.2540     469.7365   1426.54602     578.2540     469.7365
   1426.53076     581.9938     472.6738   1426.53076     581.9938     472.6738
   1426.51550     585.8036     475.1884   1426.51550     585.8036     475.1884
   1426.50024     588.3774     477.7032   1426.50024     588.3774     477.7032
   1426.48499     591.7987     480.4778   1426.48499     591.7987     480.4778
   1426.46973     594.6674     483.1171   1426.46973     594.6674     483.1171
   1426.45447     597.7831     484.9275   1426.45447     597.7831     484.9275
   1426.43921     600.9238     486.7762   1426.43921     600.9238     486.7762
   1426.42395     604.9254     490.3337   1426.42395     604.9254     490.3337
   1426.40869     608.1631     492.6920   1426.40869     608.1631     492.6920
   1426.39343     610.6794     494.8006   1426.39343     610.6794     494.8006
   1426.37817     614.6700     497.6874   1426.37817     614.6700     497.6874
   1426.36292     617.1963     500.1554   1426.36292     617.1963     500.1554
   1426.34766     620.3088     502.2401   1426.34766     620.3088     502.2401
   1426.33240     623.2316     505.2221   1426.33240     623.2316     505.2221
   1426.31714     626.7345     507.9380   1426.31714     626.7345     507.9380
   1426.30188     630.8587     509.8306   1426.30188     630.8587     509.8306
   1426.28662     633.3102     513.0343   1426.28662     633.3102     513.0343
   1426.27136     635.8115     514.3806   1426.27136     635.8115     514.3806
   1426.25610     638.2354     517.0077   1426.25610     638.2354     517.0077
   1426.24084     642.3655     519.1494   1426.24084     642.3655     519.1494
   1426.22559     644.7278     521.8043   1426.22559     644.7278     521.8043
   1426.21033     647.4261     523.9291   1426.21033     647.4261     523.9291
   1426.19507     651.0875     526.8943   1426.19507     651.0875     526.8943
   1426.17981     653.5316     529.7708   1426.17981     653.5316     529.7708
   1426.16455     656.4897     530.8486   1426.16455     656.4897     530.8486
   1426.14929     660.2091     532.6009   1426.14929     660.2091     532.6009
   1426.13403     661.8911     535.6275   1426.13403     661.8911     535.6275
   1426.11877     664.9323     537.5276   1426.11877     664.9323     537.5276
   1426.10352     666.9686     540.0382   1426.10352     666.9686     540.0382
   1426.08826     670.9575     541.7386   1426.08826     670.9575     541.7386
   1426.07300     673.4460     544.2376   1426.07300     673.4460     544.2376
   1426.05774     675.6401     546.6518   1426.05774     675.6401     546.6518
   1426.04248     678.4226     548.7958   1426.04248     678.4226     548.7958
   1426.02722     681.9050     550.0142   1426.02722     681.9050     550.0142
   1426.01196     683.1207     552.5193   1426.01196     683.1207     552.5193
   1425.99670     686.6627     554.9674   1425.99670     686.6627     554.9674
   1425.98145     688.6780     556.4204   1425.98145     688.6780     556.4204
   1425.96619     692.5443     558.4706   1425.96619     692.5443     558.4706
   1425.95093     693.9384     560.7526   1425.95093     693.9384     560.7526
   1425.93567     696.0249     562.1953   1425.93567     696.0249     562.1953
   1425.92041     699.0632     564.2411   1425.92041     699.0632     564.2411
   1425.90515     701.5900     565.9395   1425.90515     701.5900     565.9395
   1425.88989     704.4297     567.9618   1425.88989     704.4297     567.9618
   1425.87463     706.7288     569.7958   1425.87463     706.7288     569.7958
   1425.85938     707.0142     571.3000   1425.85938     707.0142     571.3000
   1425.84412     709.9920     573.9131   1425.84412     709.9920     573.9131
   1425.82886     713.1715     575.8224   1425.82886     713.1715     575.8224
   1425.81360     715.0658     576.8881   1425.81360     715.0658     576.8881
   1425.79834     717.8159     578.6252   1425.79834     717.8159     578.6252
   1425.78308     719.8398     580.8820   1425.78308     719.8398     580.8820
   1425.76782     721.4975     582.4183   1425.76782     721.4975     582.4183
   1425.75256     724.0671     584.0130   1425.75256     724.0671     584.0130
   1425.73730     725.0594     585.6137   1425.73730     725.0594     585.6137
   1425.72205     728.5643     586.7472   1425.72205     728.5643     586.7472
   1425.70679     730.0604     588.1882   1425.70679     730.0604     588.1882
   1425.69153     731.8724     590.1517   1425.69153     731.8724     590.1517
   1425.67627     733.7139     592.1233   1425.67627     733.7139     592.1233
   1425.66101     735.4953     593.3425   1425.66101     735.4953     593.3425
   1425.64575     737.1208     594.4377   1425.64575     737.1208     594.4377
   1425.63049     739.5616     596.3608   1425.63049     739.5616     596.3608
   1425.61523     740.8285     597.5960   1425.61523     740.8285     597.5960
   1425.59998     743.6266     598.7604   1425.59998     743.6266     598.7604
   1425.58472     744.2914     600.2387   1425.58472     744.2914     600.2387
   1425.56946     745.9833     602.5584   1425.56946     745.9833     602.5584
   1425.55420     747.5185     602.0122   1425.55420     747.5185     602.0122
   1425.53894     748.0683     605.6264   1425.53894     748.0683     605.6264
   1425.52368     752.2802     605.5600   1425.52368     752.2802     605.5600
   1425.50842     752.3010     606.7867   1425.50842     752.3010     606.7867
   1425.49316     754.8649     608.1268   1425.49316     754.8649     608.1268
   1425.47791     753.8781     610.0856   1425.47791     753.8781     610.0856
   1425.46265     756.2391     611.1431   1425.46265     756.2391     611.1431
   1425.44739     758.4276     612.3021   1425.44739     758.4276     612.3021
   1425.43213     759.7603     613.0991   1425.43213     759.7603     613.0991
   1425.41687     760.8207     614.7505   1425.41687     760.8207     614.7505
   1425.40161     762.1536     615.4252   1425.40161     762.1536     615.4252
   1425.38635     764.2125     615.4866   1425.38635     764.2125     615.4866
   1425.37109     765.1370     616.8804   1425.37109     765.1370     616.8804
   1425.35583     766.5909     618.6609   1425.35583     766.5909     618.6609
   1425.34058     765.7625     619.4153   1425.34058     765.7625     619.4153
   1425.32532     768.0856     620.5781   1425.32532     768.0856     620.5781
   1425.31006     768.6110     621.9998   1425.31006     768.6110     621.9998
   1425.29480     769.7165     622.4623   1425.29480     769.7165     622.4623
   1425.27954     771.4721     623.5589   1425.27954     771.4721     623.5589
   1425.26428     772.5667     625.7183   1425.26428     772.5667     625.7183
   1425.24902     774.2786     625.2128   1425.24902     774.2786     625.2128
   1425.23376     774.0515     625.9615   1425.23376     774.0515     625.9615
   1425.21851     775.5049     627.3022   1425.21851     775.5049     627.3022
   1425.20325     776.0561     627.8979   1425.20325     776.0561     627.8979
   1425.18799     777.0605     628.8425   1425.18799     777.0605     628.8425
   1425.17273     776.1626     629.5478   1425.17273     776.1626     629.5478
   1425.15747     777.9991     631.3594   1425.15747     777.9991     631.3594
   1425.14221     779.6599     631.7537   1425.14221     779.6599     631.7537
   1425.12695     779.7905     631.8024   1425.12695     779.7905     631.8024
   1425.11169     780.5999     632.3422   1425.11169     780.5999     632.3422
   1425.09644     781.6825     633.6661   1425.09644     781.6825     633.6661
   1425.08118     781.5393     634.3839   1425.08118     781.5393     634.3839
   1425.06592     782.4488     634.4853   1425.06592     782.4488     634.4853
   1425.05066     783.5952     635.6374   1425.05066     783.5952     635.6374
   1425.03540     784.5825     635.9437   1425.03540     784.5825     635.9437
   1425.02014     783.8011     636.9345   1425.02014     783.8011     636.9345
   1425.00488     784.5037     637.7719   1425.00488     784.5037     637.7719
   1424.98962     785.0977     638.1566   1424.98962     785.0977     638.1566
   1424.97437     784.2599     638.1277   1424.97437     784.2599     638.1277
   1424.95911     785.8356     639.2328   1424.95911     785.8356     639.2328
   1424.94385     786.5494     638.5864   1424.94385     786.5494     638.5864
   1424.92859     787.3393     640.0827   1424.92859     787.3393     640.0827
   1424.91333     785.7323     639.9788   1424.91333     785.7323     639.9788
   1424.89807     787.7255     640.8002   1424.89807     787.7255     640.8002
   1424.88281     786.9664     640.5707   1424.88281     786.9664     640.5707
   1424.86755     786.8691     641.5692   1424.86755     786.8691     641.5692
   1424.85229     787.6038     641.3990   1424.85229     787.6038     641.3990
   1424.83704     789.0575     643.8411   1424.83704     789.0575     643.8411
   1424.82178     788.5489     643.6999   1424.82178     788.5489     643.6999
   1424.80652     789.3464     643.4270   1424.80652     789.3464     643.4270
   1424.79126     788.9257     644.1768   1424.79126     788.9257     644.1768
   1424.77600     788.2561     644.1002   1424.77600     788.2561     644.1002
   1424.76074     787.6570     644.0913   1424.76074     787.6570     644.0913
   1424.74548     790.1614     644.5775   1424.74548     790.1614     644.5775
   1424.73022     788.0240     646.6205   1424.73022     788.0240     646.6205
   1424.71497     788.0500     645.0052   1424.71497     788.0500     645.0052
   1424.69971     788.8995     646.6604   1424.69971     788.8995     646.6604
   1424.68445     789.2115     646.3138   1424.68445     789.2115     646.3138
   1424.66919     789.4938     645.1703   1424.66919     789.4938     645.1703
   1424.65393     787.1577     647.1856   1424.65393     787.1577     647.1856
   1424.63867     788.9023     646.4164   1424.63867     788.9023     646.4164
   1424.62341     788.8387     647.2292   1424.62341     788.8387     647.2292
   1424.60815     788.7068     646.7330   1424.60815     788.7068     646.7330
   1424.59290     788.5842     648.1072   1424.59290     788.5842     648.1072
   1424.57764     788.8647     647.2599   1424.57764     788.8647     647.2599
   1424.56238     788.7896     647.0743   1424.56238     788.7896     647.0743
   1424.54712     787.3990     648.4164   1424.54712     787.3990     648.4164
   1424.53186     789.0084     646.9618   1424.53186     789.0084     646.9618
   1424.51660     788.4003     648.4428   1424.51660     788.4003     648.4428
   1424.50134     787.6390     647.2221   1424.50134     787.6390     647.2221
   1424.48608     788.4638     647.2017   1424.48608     788.4638     647.2017
   1424.47083     787.3020     647.5680   1424.47083     787.3020     647.5680
   1424.45557     785.9673     647.6990   1424.45557     785.9673     647.6990
   1424.44031     785.9095     647.4254   1424.44031     785.9095     647.4254
   1424.42505     786.2523     647.9260   1424.42505     786.2523     647.9260
   1424.40979     786.3626     648.7357   1424.40979     786.3626     648.7357
   1424.39453     784.3392     647.9258   1424.39453     784.3392     647.9258
   1424.37927     786.5364     647.6603   1424.37927     786.5364     647.6603
   1424.36401     783.9641     648.6724   1424.36401     783.9641     648.6724
   1424.34875     785.0756     648.5617   1424.34875     785.0756     648.5617
   1424.33350     784.0076     647.9505   1424.33350     784.0076     647.9505
   1424.31824     784.3528     647.8425   1424.31824     784.3528     647.8425
   1424.30298     783.8637     648.4017   1424.30298     783.8637     648.4017
   1424.28772     782.7377     648.7780   1424.28772     782.7377     648.7780
   1424.27246     782.5088     646.9150   1424.27246     782.5088     646.9150
   1424.25720     782.2831     647.2405   1424.25720     782.2831     647.2405
   1424.24194     781.5475     647.4066   1424.24194     781.5475     647.4066
   1424.22668     781.4755     646.5978   1424.22668     781.4755     646.5978
   1424.21143     781.7994     645.8052   1424.21143     781.7994     645.8052
   1424.19617     781.2913     647.0375   1424.19617     781.2913     647.0375
   1424.18091     780.0953     646.3544   1424.18091     780.0953     646.3544
   1424.16565     779.1889     647.6760   1424.16565     779.1889     647.6760
