#     FILENAME=!Skynet_57528_lach-hhg-130_20430_20954.cyb.fits
#     BASENAME=Skynet_57528_lach-hhg-130_20430_20954
#     SRC_NAME=lach-hhg-130
#     OBSERVER=hhgmadison16_9500
#     DATE_OBS=2016-05-20T16:57:30.620
#        OBSID=20430
#      SCANNUM=20954
#          MJD=57528.7076
#          UTC=61139
#     SCANTYPE=track
#     DATAMODE=HIRES
#     TUNEFREQ=1420.0000
# Actual_FREQ1=1420.0000
# Actual_FREQ2=1420.0000
#    LO1Tuning=6870.000
#     RFFILTER=1355_1435
#        OBSBW=-15.6250
#        NCHAN=1024 
#        FOCUS=37.0929
#           RA=01:52:16.04
#          DEC=62:02:02.99
#      RA(hrs)=1.871100
#     DEC(deg)=62.034200
#    AZIM(deg)=334.750
#    ELEV(deg)=61.733
#     IFattens=10.00, 10.00
#      WARNING=None
#    TCAL_XL1=7.9635
#    TCAL_YR1=9.1340
#    TCAL_XL2=7.9635
#    TCAL_YR2=9.1340
#     TRX_XL1=11.7060
#     TRX_YR1=11.7060
#     TRX_XL2=11.7060
#     TRX_YR2=11.7060
#        TAVE=1.0000
#Freq1(MHz)          XL1          YR1  Freq2(MHz)          XL2          YR2 

   1427.81250     296.3735     288.5771   1427.81250     296.3735     288.5771
   1427.79724     296.2340     289.6868   1427.79724     296.2340     289.6868
   1427.78198     296.9045     290.6955   1427.78198     296.9045     290.6955
   1427.76672     297.6439     291.8857   1427.76672     297.6439     291.8857
   1427.75146     299.1055     292.5980   1427.75146     299.1055     292.5980
   1427.73621     299.2353     294.0328   1427.73621     299.2353     294.0328
   1427.72095     299.6766     294.6990   1427.72095     299.6766     294.6990
   1427.70569     300.2775     296.1509   1427.70569     300.2775     296.1509
   1427.69043     301.2266     297.1789   1427.69043     301.2266     297.1789
   1427.67517     302.2767     297.9919   1427.67517     302.2767     297.9919
   1427.65991     303.2188     299.5550   1427.65991     303.2188     299.5550
   1427.64465     304.4775     300.8888   1427.64465     304.4775     300.8888
   1427.62939     305.4400     302.2183   1427.62939     305.4400     302.2183
   1427.61414     306.3445     303.3939   1427.61414     306.3445     303.3939
   1427.59888     307.2555     305.3974   1427.59888     307.2555     305.3974
   1427.58362     308.4547     306.1543   1427.58362     308.4547     306.1543
   1427.56836     310.0104     307.7111   1427.56836     310.0104     307.7111
   1427.55310     310.5412     309.5265   1427.55310     310.5412     309.5265
   1427.53784     311.6473     310.3618   1427.53784     311.6473     310.3618
   1427.52258     313.6738     311.9025   1427.52258     313.6738     311.9025
   1427.50732     314.7409     314.3582   1427.50732     314.7409     314.3582
   1427.49207     315.8885     315.8061   1427.49207     315.8885     315.8061
   1427.47681     317.3754     317.6020   1427.47681     317.3754     317.6020
   1427.46155     318.7425     319.3102   1427.46155     318.7425     319.3102
   1427.44629     320.2527     321.0928   1427.44629     320.2527     321.0928
   1427.43103     322.0323     322.7924   1427.43103     322.0323     322.7924
   1427.41577     323.0792     324.4226   1427.41577     323.0792     324.4226
   1427.40051     325.0845     326.6529   1427.40051     325.0845     326.6529
   1427.38525     326.0782     328.0761   1427.38525     326.0782     328.0761
   1427.37000     328.5791     330.5371   1427.37000     328.5791     330.5371
   1427.35474     329.4987     331.8515   1427.35474     329.4987     331.8515
   1427.33948     331.5468     334.7922   1427.33948     331.5468     334.7922
   1427.32422     333.5599     337.0989   1427.32422     333.5599     337.0989
   1427.30896     335.4513     338.7889   1427.30896     335.4513     338.7889
   1427.29370     336.9223     340.3906   1427.29370     336.9223     340.3906
   1427.27844     338.9657     343.0755   1427.27844     338.9657     343.0755
   1427.26318     340.2964     345.2013   1427.26318     340.2964     345.2013
   1427.24792     342.4110     346.9501   1427.24792     342.4110     346.9501
   1427.23267     344.3960     349.4277   1427.23267     344.3960     349.4277
   1427.21741     346.8779     351.7892   1427.21741     346.8779     351.7892
   1427.20215     348.5569     354.1650   1427.20215     348.5569     354.1650
   1427.18689     350.5408     356.5002   1427.18689     350.5408     356.5002
   1427.17163     353.0481     358.6178   1427.17163     353.0481     358.6178
   1427.15637     355.0477     360.7510   1427.15637     355.0477     360.7510
   1427.14111     357.2992     363.2690   1427.14111     357.2992     363.2690
   1427.12585     359.1618     365.4197   1427.12585     359.1618     365.4197
   1427.11060     362.0710     367.7238   1427.11060     362.0710     367.7238
   1427.09534     363.8162     370.3539   1427.09534     363.8162     370.3539
   1427.08008     365.7851     372.7452   1427.08008     365.7851     372.7452
   1427.06482     367.8967     375.0335   1427.06482     367.8967     375.0335
   1427.04956     370.4430     377.7123   1427.04956     370.4430     377.7123
   1427.03430     372.5728     380.6291   1427.03430     372.5728     380.6291
   1427.01904     375.8615     382.8846   1427.01904     375.8615     382.8846
   1427.00378     377.7442     384.8722   1427.00378     377.7442     384.8722
   1426.98853     379.7632     387.5535   1426.98853     379.7632     387.5535
   1426.97327     381.6123     390.2129   1426.97327     381.6123     390.2129
   1426.95801     384.7719     392.7290   1426.95801     384.7719     392.7290
   1426.94275     386.4992     395.4802   1426.94275     386.4992     395.4802
   1426.92749     389.2159     398.2950   1426.92749     389.2159     398.2950
   1426.91223     391.7836     400.2721   1426.91223     391.7836     400.2721
   1426.89697     393.8604     403.2160   1426.89697     393.8604     403.2160
   1426.88171     396.3763     405.7602   1426.88171     396.3763     405.7602
   1426.86646     399.1182     409.0855   1426.86646     399.1182     409.0855
   1426.85120     401.5261     410.7410   1426.85120     401.5261     410.7410
   1426.83594     403.9363     413.7281   1426.83594     403.9363     413.7281
   1426.82068     406.0410     416.6710   1426.82068     406.0410     416.6710
   1426.80542     409.2461     419.0187   1426.80542     409.2461     419.0187
   1426.79016     411.6925     421.9814   1426.79016     411.6925     421.9814
   1426.77490     414.0690     423.9407   1426.77490     414.0690     423.9407
   1426.75964     416.6358     426.7248   1426.75964     416.6358     426.7248
   1426.74438     419.2451     428.8682   1426.74438     419.2451     428.8682
   1426.72913     421.6407     432.9111   1426.72913     421.6407     432.9111
   1426.71387     424.2990     434.4643   1426.71387     424.2990     434.4643
   1426.69861     427.0287     437.4538   1426.69861     427.0287     437.4538
   1426.68335     428.8971     440.1332   1426.68335     428.8971     440.1332
   1426.66809     431.9999     443.2225   1426.66809     431.9999     443.2225
   1426.65283     434.3653     445.9637   1426.65283     434.3653     445.9637
   1426.63757     436.7537     447.5471   1426.63757     436.7537     447.5471
   1426.62231     440.1462     452.4734   1426.62231     440.1462     452.4734
   1426.60706     441.6888     454.2899   1426.60706     441.6888     454.2899
   1426.59180     444.7791     456.5306   1426.59180     444.7791     456.5306
   1426.57654     447.1062     457.9570   1426.57654     447.1062     457.9570
   1426.56128     449.4862     460.9689   1426.56128     449.4862     460.9689
   1426.54602     452.2792     463.7951   1426.54602     452.2792     463.7951
   1426.53076     454.7225     466.6407   1426.53076     454.7225     466.6407
   1426.51550     457.1338     468.6100   1426.51550     457.1338     468.6100
   1426.50024     459.3992     472.1044   1426.50024     459.3992     472.1044
   1426.48499     462.1491     473.5529   1426.48499     462.1491     473.5529
   1426.46973     464.0491     477.0312   1426.46973     464.0491     477.0312
   1426.45447     467.0204     479.5999   1426.45447     467.0204     479.5999
   1426.43921     469.7397     481.9135   1426.43921     469.7397     481.9135
   1426.42395     471.7441     484.2650   1426.42395     471.7441     484.2650
   1426.40869     475.1663     487.4753   1426.40869     475.1663     487.4753
   1426.39343     477.7261     488.7560   1426.39343     477.7261     488.7560
   1426.37817     480.3532     491.4416   1426.37817     480.3532     491.4416
   1426.36292     482.0848     494.3727   1426.36292     482.0848     494.3727
   1426.34766     485.1505     496.1544   1426.34766     485.1505     496.1544
   1426.33240     488.1831     498.7391   1426.33240     488.1831     498.7391
   1426.31714     489.9560     501.0628   1426.31714     489.9560     501.0628
   1426.30188     492.0803     504.6552   1426.30188     492.0803     504.6552
   1426.28662     494.1124     506.1014   1426.28662     494.1124     506.1014
   1426.27136     496.3205     508.5950   1426.27136     496.3205     508.5950
   1426.25610     498.4275     510.8414   1426.25610     498.4275     510.8414
   1426.24084     501.7181     513.1087   1426.24084     501.7181     513.1087
   1426.22559     503.3898     515.1011   1426.22559     503.3898     515.1011
   1426.21033     505.5492     517.7908   1426.21033     505.5492     517.7908
   1426.19507     508.3113     520.1238   1426.19507     508.3113     520.1238
   1426.17981     510.6654     522.1133   1426.17981     510.6654     522.1133
   1426.16455     513.5403     524.5701   1426.16455     513.5403     524.5701
   1426.14929     515.6622     527.0345   1426.14929     515.6622     527.0345
   1426.13403     517.2610     529.3954   1426.13403     517.2610     529.3954
   1426.11877     520.1051     531.1918   1426.11877     520.1051     531.1918
   1426.10352     521.4204     533.7700   1426.10352     521.4204     533.7700
   1426.08826     523.3900     536.5163   1426.08826     523.3900     536.5163
   1426.07300     526.2086     538.1822   1426.07300     526.2086     538.1822
   1426.05774     527.5084     539.5606   1426.05774     527.5084     539.5606
   1426.04248     529.8157     541.6263   1426.04248     529.8157     541.6263
   1426.02722     532.9224     544.9679   1426.02722     532.9224     544.9679
   1426.01196     533.8553     546.4772   1426.01196     533.8553     546.4772
   1425.99670     535.3588     548.2145   1425.99670     535.3588     548.2145
   1425.98145     538.1346     551.4789   1425.98145     538.1346     551.4789
   1425.96619     540.3813     552.7421   1425.96619     540.3813     552.7421
   1425.95093     542.2685     553.5579   1425.95093     542.2685     553.5579
   1425.93567     544.2944     555.9286   1425.93567     544.2944     555.9286
   1425.92041     545.8189     557.5341   1425.92041     545.8189     557.5341
   1425.90515     547.7812     560.0853   1425.90515     547.7812     560.0853
   1425.88989     549.9728     562.5162   1425.88989     549.9728     562.5162
   1425.87463     551.2968     563.6929   1425.87463     551.2968     563.6929
   1425.85938     553.8546     565.8748   1425.85938     553.8546     565.8748
   1425.84412     555.1678     568.6487   1425.84412     555.1678     568.6487
   1425.82886     557.1663     569.6124   1425.82886     557.1663     569.6124
   1425.81360     558.5144     570.2313   1425.81360     558.5144     570.2313
   1425.79834     560.9752     573.2313   1425.79834     560.9752     573.2313
   1425.78308     562.0702     574.1978   1425.78308     562.0702     574.1978
   1425.76782     564.0734     576.2781   1425.76782     564.0734     576.2781
   1425.75256     565.4273     578.4330   1425.75256     565.4273     578.4330
   1425.73730     566.9272     580.0392   1425.73730     566.9272     580.0392
   1425.72205     568.3486     582.1225   1425.72205     568.3486     582.1225
   1425.70679     569.8010     583.4686   1425.70679     569.8010     583.4686
   1425.69153     571.8711     584.4516   1425.69153     571.8711     584.4516
   1425.67627     574.0847     586.6931   1425.67627     574.0847     586.6931
   1425.66101     574.9467     588.2654   1425.66101     574.9467     588.2654
   1425.64575     575.4742     588.8872   1425.64575     575.4742     588.8872
   1425.63049     577.1826     591.0573   1425.63049     577.1826     591.0573
   1425.61523     577.6936     592.1636   1425.61523     577.6936     592.1636
   1425.59998     580.0938     595.0304   1425.59998     580.0938     595.0304
   1425.58472     581.6392     595.6407   1425.58472     581.6392     595.6407
   1425.56946     581.9962     596.4963   1425.56946     581.9962     596.4963
   1425.55420     583.2158     597.4952   1425.55420     583.2158     597.4952
   1425.53894     585.1390     599.1267   1425.53894     585.1390     599.1267
   1425.52368     586.2570     600.5760   1425.52368     586.2570     600.5760
   1425.50842     586.8755     601.6946   1425.50842     586.8755     601.6946
   1425.49316     588.3306     603.4453   1425.49316     588.3306     603.4453
   1425.47791     589.9276     603.0722   1425.47791     589.9276     603.0722
   1425.46265     590.7736     605.9869   1425.46265     590.7736     605.9869
   1425.44739     592.2697     607.4356   1425.44739     592.2697     607.4356
   1425.43213     591.7061     609.0814   1425.43213     591.7061     609.0814
   1425.41687     593.7582     610.2062   1425.41687     593.7582     610.2062
   1425.40161     596.0039     610.1079   1425.40161     596.0039     610.1079
   1425.38635     596.3683     613.1055   1425.38635     596.3683     613.1055
   1425.37109     596.5214     613.1024   1425.37109     596.5214     613.1024
   1425.35583     597.1456     614.4373   1425.35583     597.1456     614.4373
   1425.34058     598.5482     615.1793   1425.34058     598.5482     615.1793
   1425.32532     599.5488     616.1416   1425.32532     599.5488     616.1416
   1425.31006     600.0022     616.2355   1425.31006     600.0022     616.2355
   1425.29480     600.5659     617.8956   1425.29480     600.5659     617.8956
   1425.27954     602.5493     618.6001   1425.27954     602.5493     618.6001
   1425.26428     601.7529     620.2250   1425.26428     601.7529     620.2250
   1425.24902     604.0204     621.0695   1425.24902     604.0204     621.0695
   1425.23376     604.0309     621.3327   1425.23376     604.0309     621.3327
   1425.21851     605.1197     623.4934   1425.21851     605.1197     623.4934
   1425.20325     605.8335     624.2964   1425.20325     605.8335     624.2964
   1425.18799     605.4577     624.8070   1425.18799     605.4577     624.8070
   1425.17273     606.3429     625.1399   1425.17273     606.3429     625.1399
   1425.15747     606.5563     626.7732   1425.15747     606.5563     626.7732
   1425.14221     608.0974     627.8942   1425.14221     608.0974     627.8942
   1425.12695     608.8929     627.8206   1425.12695     608.8929     627.8206
   1425.11169     609.3759     629.1608   1425.11169     609.3759     629.1608
   1425.09644     609.6255     629.7401   1425.09644     609.6255     629.7401
   1425.08118     609.4709     630.0146   1425.08118     609.4709     630.0146
   1425.06592     610.0893     631.0800   1425.06592     610.0893     631.0800
   1425.05066     611.0621     631.3506   1425.05066     611.0621     631.3506
   1425.03540     611.3386     632.6327   1425.03540     611.3386     632.6327
   1425.02014     611.7248     633.4108   1425.02014     611.7248     633.4108
   1425.00488     612.2056     633.3291   1425.00488     612.2056     633.3291
   1424.98962     613.3923     635.6296   1424.98962     613.3923     635.6296
   1424.97437     613.6732     634.4659   1424.97437     613.6732     634.4659
   1424.95911     613.7732     636.2690   1424.95911     613.7732     636.2690
   1424.94385     613.4110     636.0190   1424.94385     613.4110     636.0190
   1424.92859     614.8824     636.5321   1424.92859     614.8824     636.5321
   1424.91333     614.1464     637.8629   1424.91333     614.1464     637.8629
   1424.89807     614.1362     637.4567   1424.89807     614.1362     637.4567
   1424.88281     614.5075     637.8583   1424.88281     614.5075     637.8583
   1424.86755     615.1346     639.1511   1424.86755     615.1346     639.1511
   1424.85229     614.7788     638.0653   1424.85229     614.7788     638.0653
   1424.83704     615.9324     639.3306   1424.83704     615.9324     639.3306
   1424.82178     615.5427     640.5355   1424.82178     615.5427     640.5355
   1424.80652     614.7783     639.5677   1424.80652     614.7783     639.5677
   1424.79126     615.2126     642.2947   1424.79126     615.2126     642.2947
   1424.77600     614.7286     641.3839   1424.77600     614.7286     641.3839
   1424.76074     615.6235     641.3353   1424.76074     615.6235     641.3353
   1424.74548     614.3363     641.3154   1424.74548     614.3363     641.3154
   1424.73022     615.6362     641.3711   1424.73022     615.6362     641.3711
   1424.71497     615.7001     642.6906   1424.71497     615.7001     642.6906
   1424.69971     615.3710     642.6464   1424.69971     615.3710     642.6464
   1424.68445     615.5602     642.9753   1424.68445     615.5602     642.9753
   1424.66919     616.0943     643.8214   1424.66919     616.0943     643.8214
   1424.65393     615.1803     642.9614   1424.65393     615.1803     642.9614
   1424.63867     615.7057     644.1705   1424.63867     615.7057     644.1705
   1424.62341     615.5441     643.0096   1424.62341     615.5441     643.0096
   1424.60815     615.8993     643.9407   1424.60815     615.8993     643.9407
   1424.59290     614.9973     644.2968   1424.59290     614.9973     644.2968
   1424.57764     616.1114     644.4656   1424.57764     616.1114     644.4656
   1424.56238     614.8976     644.5962   1424.56238     614.8976     644.5962
   1424.54712     615.9802     644.8425   1424.54712     615.9802     644.8425
   1424.53186     614.1875     644.4041   1424.53186     614.1875     644.4041
   1424.51660     615.0207     645.2593   1424.51660     615.0207     645.2593
   1424.50134     614.6249     644.7676   1424.50134     614.6249     644.7676
   1424.48608     613.9867     644.7373   1424.48608     613.9867     644.7373
   1424.47083     613.1229     646.0686   1424.47083     613.1229     646.0686
   1424.45557     614.0511     644.8351   1424.45557     614.0511     644.8351
   1424.44031     614.5538     645.4459   1424.44031     614.5538     645.4459
   1424.42505     613.6174     646.3192   1424.42505     613.6174     646.3192
   1424.40979     613.2978     644.9702   1424.40979     613.2978     644.9702
   1424.39453     613.5751     645.2411   1424.39453     613.5751     645.2411
   1424.37927     613.2433     645.8569   1424.37927     613.2433     645.8569
   1424.36401     612.4057     645.3417   1424.36401     612.4057     645.3417
   1424.34875     612.5339     645.4755   1424.34875     612.5339     645.4755
   1424.33350     611.9553     645.1736   1424.33350     611.9553     645.1736
   1424.31824     611.2715     645.4504   1424.31824     611.2715     645.4504
   1424.30298     611.3948     645.1847   1424.30298     611.3948     645.1847
   1424.28772     610.5733     645.1865   1424.28772     610.5733     645.1865
   1424.27246     611.1533     644.3192   1424.27246     611.1533     644.3192
   1424.25720     611.5248     644.3036   1424.25720     611.5248     644.3036
   1424.24194     610.5998     644.9985   1424.24194     610.5998     644.9985
   1424.22668     609.7579     645.1959   1424.22668     609.7579     645.1959
   1424.21143     610.4329     644.3456   1424.21143     610.4329     644.3456
   1424.19617     609.6838     644.7444   1424.19617     609.6838     644.7444
   1424.18091     610.0450     643.7077   1424.18091     610.0450     643.7077
   1424.16565     609.3203     643.5283   1424.16565     609.3203     643.5283
