#     FILENAME=!Skynet_57528_lach-hhg-104_20358_20911.cyb.fits
#     BASENAME=Skynet_57528_lach-hhg-104_20358_20911
#     SRC_NAME=lach-hhg-104
#     OBSERVER=hhgmadison16_9500
#     DATE_OBS=2016-05-20T15:31:29.750
#        OBSID=20358
#      SCANNUM=20911
#          MJD=57528.6479
#          UTC=55978
#     SCANTYPE=track
#     DATAMODE=HIRES
#     TUNEFREQ=1420.0000
# Actual_FREQ1=1420.0000
# Actual_FREQ2=1420.0000
#    LO1Tuning=6870.000
#     RFFILTER=1355_1435
#        OBSBW=-15.6250
#        NCHAN=1024 
#        FOCUS=37.0709
#           RA=22:23:47.93
#          DEC=57:20:06.40
#      RA(hrs)=22.396600
#     DEC(deg)=57.335100
#    AZIM(deg)=316.123
#    ELEV(deg)=49.502
#     IFattens=11.00, 10.00
#      WARNING=None
#    TCAL_XL1=7.9635
#    TCAL_YR1=9.1340
#    TCAL_XL2=7.9635
#    TCAL_YR2=9.1340
#     TRX_XL1=11.7060
#     TRX_YR1=11.7060
#     TRX_XL2=11.7060
#     TRX_YR2=11.7060
#        TAVE=1.0000
#Freq1(MHz)          XL1          YR1  Freq2(MHz)          XL2          YR2 

   1427.81250     294.7887     228.8961   1427.81250     294.7887     228.8961
   1427.79724     295.6740     229.2554   1427.79724     295.6740     229.2554
   1427.78198     296.4064     230.0647   1427.78198     296.4064     230.0647
   1427.76672     296.8467     230.5537   1427.76672     296.8467     230.5537
   1427.75146     296.9746     230.9803   1427.75146     296.9746     230.9803
   1427.73621     297.8306     232.3263   1427.73621     297.8306     232.3263
   1427.72095     298.5491     232.8000   1427.72095     298.5491     232.8000
   1427.70569     299.3767     233.5993   1427.70569     299.3767     233.5993
   1427.69043     299.7776     234.2924   1427.69043     299.7776     234.2924
   1427.67517     301.6135     235.1098   1427.67517     301.6135     235.1098
   1427.65991     302.0545     235.9990   1427.65991     302.0545     235.9990
   1427.64465     302.8063     236.9171   1427.64465     302.8063     236.9171
   1427.62939     304.0019     238.0251   1427.62939     304.0019     238.0251
   1427.61414     305.4818     238.5353   1427.61414     305.4818     238.5353
   1427.59888     306.1597     239.6242   1427.59888     306.1597     239.6242
   1427.58362     307.1743     240.7146   1427.58362     307.1743     240.7146
   1427.56836     308.3490     241.4410   1427.56836     308.3490     241.4410
   1427.55310     309.3503     242.4763   1427.55310     309.3503     242.4763
   1427.53784     310.2786     243.3832   1427.53784     310.2786     243.3832
   1427.52258     312.0565     244.4056   1427.52258     312.0565     244.4056
   1427.50732     313.2414     245.9450   1427.50732     313.2414     245.9450
   1427.49207     314.9045     246.9174   1427.49207     314.9045     246.9174
   1427.47681     316.0677     248.7415   1427.47681     316.0677     248.7415
   1427.46155     317.5745     249.5900   1427.46155     317.5745     249.5900
   1427.44629     318.7014     250.9788   1427.44629     318.7014     250.9788
   1427.43103     320.3283     251.7558   1427.43103     320.3283     251.7558
   1427.41577     321.8565     253.3175   1427.41577     321.8565     253.3175
   1427.40051     323.0064     254.7888   1427.40051     323.0064     254.7888
   1427.38525     324.8287     255.9594   1427.38525     324.8287     255.9594
   1427.37000     326.5136     257.0930   1427.37000     326.5136     257.0930
   1427.35474     328.0319     258.5153   1427.35474     328.0319     258.5153
   1427.33948     329.6781     260.4304   1427.33948     329.6781     260.4304
   1427.32422     332.0915     261.7272   1427.32422     332.0915     261.7272
   1427.30896     333.0882     262.9310   1427.30896     333.0882     262.9310
   1427.29370     334.9781     264.1259   1427.29370     334.9781     264.1259
   1427.27844     336.9320     265.6796   1427.27844     336.9320     265.6796
   1427.26318     338.7896     267.0510   1427.26318     338.7896     267.0510
   1427.24792     341.0560     268.7165   1427.24792     341.0560     268.7165
   1427.23267     342.4712     270.2841   1427.23267     342.4712     270.2841
   1427.21741     344.0479     271.6615   1427.21741     344.0479     271.6615
   1427.20215     346.4248     273.1174   1427.20215     346.4248     273.1174
   1427.18689     347.5923     275.0927   1427.18689     347.5923     275.0927
   1427.17163     350.2751     276.4507   1427.17163     350.2751     276.4507
   1427.15637     352.6092     278.2124   1427.15637     352.6092     278.2124
   1427.14111     354.1093     280.1122   1427.14111     354.1093     280.1122
   1427.12585     356.2594     281.4057   1427.12585     356.2594     281.4057
   1427.11060     358.0659     283.1033   1427.11060     358.0659     283.1033
   1427.09534     360.2757     284.6834   1427.09534     360.2757     284.6834
   1427.08008     362.1133     286.2303   1427.08008     362.1133     286.2303
   1427.06482     364.7881     288.2086   1427.06482     364.7881     288.2086
   1427.04956     366.1780     290.3203   1427.04956     366.1780     290.3203
   1427.03430     368.9142     291.5615   1427.03430     368.9142     291.5615
   1427.01904     370.7629     293.1269   1427.01904     370.7629     293.1269
   1427.00378     373.0339     295.4174   1427.00378     373.0339     295.4174
   1426.98853     375.5170     296.6646   1426.98853     375.5170     296.6646
   1426.97327     377.3359     299.2939   1426.97327     377.3359     299.2939
   1426.95801     379.4004     300.6053   1426.95801     379.4004     300.6053
   1426.94275     381.9281     302.4126   1426.94275     381.9281     302.4126
   1426.92749     384.1109     304.0368   1426.92749     384.1109     304.0368
   1426.91223     386.1904     306.0233   1426.91223     386.1904     306.0233
   1426.89697     389.0756     307.7432   1426.89697     389.0756     307.7432
   1426.88171     390.8292     309.5105   1426.88171     390.8292     309.5105
   1426.86646     392.8173     310.9247   1426.86646     392.8173     310.9247
   1426.85120     395.4359     313.3730   1426.85120     395.4359     313.3730
   1426.83594     398.1533     314.8345   1426.83594     398.1533     314.8345
   1426.82068     400.7138     317.1888   1426.82068     400.7138     317.1888
   1426.80542     403.2751     318.5027   1426.80542     403.2751     318.5027
   1426.79016     405.1171     320.9570   1426.79016     405.1171     320.9570
   1426.77490     407.0785     322.7976   1426.77490     407.0785     322.7976
   1426.75964     409.4833     324.2337   1426.75964     409.4833     324.2337
   1426.74438     412.7995     325.9873   1426.74438     412.7995     325.9873
   1426.72913     414.3482     327.9326   1426.72913     414.3482     327.9326
   1426.71387     417.4310     329.8405   1426.71387     417.4310     329.8405
   1426.69861     419.3656     331.6415   1426.69861     419.3656     331.6415
   1426.68335     421.3184     333.4212   1426.68335     421.3184     333.4212
   1426.66809     423.8048     335.2825   1426.66809     423.8048     335.2825
   1426.65283     426.0608     337.3062   1426.65283     426.0608     337.3062
   1426.63757     428.2679     339.4111   1426.63757     428.2679     339.4111
   1426.62231     431.2793     341.5147   1426.62231     431.2793     341.5147
   1426.60706     433.0203     342.8806   1426.60706     433.0203     342.8806
   1426.59180     435.7292     344.2838   1426.59180     435.7292     344.2838
   1426.57654     437.4507     346.3768   1426.57654     437.4507     346.3768
   1426.56128     439.8178     348.5744   1426.56128     439.8178     348.5744
   1426.54602     443.1913     349.9994   1426.54602     443.1913     349.9994
   1426.53076     445.3457     351.7016   1426.53076     445.3457     351.7016
   1426.51550     447.2552     353.4279   1426.51550     447.2552     353.4279
   1426.50024     449.2881     355.7440   1426.50024     449.2881     355.7440
   1426.48499     452.0196     357.0045   1426.48499     452.0196     357.0045
   1426.46973     454.0138     359.2569   1426.46973     454.0138     359.2569
   1426.45447     456.6009     360.8351   1426.45447     456.6009     360.8351
   1426.43921     458.0783     362.7624   1426.43921     458.0783     362.7624
   1426.42395     461.6601     364.3289   1426.42395     461.6601     364.3289
   1426.40869     463.4531     366.2315   1426.40869     463.4531     366.2315
   1426.39343     464.9568     367.6463   1426.39343     464.9568     367.6463
   1426.37817     467.7816     368.9994   1426.37817     467.7816     368.9994
   1426.36292     469.3252     371.3234   1426.36292     469.3252     371.3234
   1426.34766     471.7191     372.4818   1426.34766     471.7191     372.4818
   1426.33240     474.3553     374.9474   1426.33240     474.3553     374.9474
   1426.31714     476.8997     376.4806   1426.31714     476.8997     376.4806
   1426.30188     479.2890     378.3545   1426.30188     479.2890     378.3545
   1426.28662     480.8109     380.0988   1426.28662     480.8109     380.0988
   1426.27136     482.0317     381.5767   1426.27136     482.0317     381.5767
   1426.25610     484.8859     383.2394   1426.25610     484.8859     383.2394
   1426.24084     488.2771     385.1204   1426.24084     488.2771     385.1204
   1426.22559     489.3965     386.2729   1426.22559     489.3965     386.2729
   1426.21033     491.1571     388.4452   1426.21033     491.1571     388.4452
   1426.19507     492.8772     389.5014   1426.19507     492.8772     389.5014
   1426.17981     495.1617     391.7227   1426.17981     495.1617     391.7227
   1426.16455     497.7944     392.8637   1426.16455     497.7944     392.8637
   1426.14929     499.2239     394.7894   1426.14929     499.2239     394.7894
   1426.13403     501.0520     396.0664   1426.13403     501.0520     396.0664
   1426.11877     503.1190     397.5032   1426.11877     503.1190     397.5032
   1426.10352     504.9810     399.2501   1426.10352     504.9810     399.2501
   1426.08826     507.1572     400.6891   1426.08826     507.1572     400.6891
   1426.07300     508.6474     402.4469   1426.07300     508.6474     402.4469
   1426.05774     510.2204     403.8702   1426.05774     510.2204     403.8702
   1426.04248     513.1760     406.0082   1426.04248     513.1760     406.0082
   1426.02722     514.9380     407.0495   1426.02722     514.9380     407.0495
   1426.01196     516.2110     408.0948   1426.01196     516.2110     408.0948
   1425.99670     517.3927     409.7010   1425.99670     517.3927     409.7010
   1425.98145     519.9042     411.3125   1425.98145     519.9042     411.3125
   1425.96619     522.0165     412.6199   1425.96619     522.0165     412.6199
   1425.95093     522.7693     413.9668   1425.95093     522.7693     413.9668
   1425.93567     525.0414     415.7287   1425.93567     525.0414     415.7287
   1425.92041     526.2399     416.7847   1425.92041     526.2399     416.7847
   1425.90515     528.1306     419.0297   1425.90515     528.1306     419.0297
   1425.88989     530.3441     419.4120   1425.88989     530.3441     419.4120
   1425.87463     531.2217     421.2531   1425.87463     531.2217     421.2531
   1425.85938     533.8254     422.4265   1425.85938     533.8254     422.4265
   1425.84412     534.9127     423.9469   1425.84412     534.9127     423.9469
   1425.82886     535.6490     425.6996   1425.82886     535.6490     425.6996
   1425.81360     538.1466     425.9118   1425.81360     538.1466     425.9118
   1425.79834     539.5627     426.9049   1425.79834     539.5627     426.9049
   1425.78308     540.9813     429.5456   1425.78308     540.9813     429.5456
   1425.76782     542.1368     429.8166   1425.76782     542.1368     429.8166
   1425.75256     543.5911     432.0104   1425.75256     543.5911     432.0104
   1425.73730     545.0293     433.3418   1425.73730     545.0293     433.3418
   1425.72205     546.5193     433.6588   1425.72205     546.5193     433.6588
   1425.70679     547.3158     435.3791   1425.70679     547.3158     435.3791
   1425.69153     548.6748     436.6409   1425.69153     548.6748     436.6409
   1425.67627     549.3659     437.2099   1425.67627     549.3659     437.2099
   1425.66101     551.4915     439.0541   1425.66101     551.4915     439.0541
   1425.64575     552.3533     440.0837   1425.64575     552.3533     440.0837
   1425.63049     553.7111     441.5208   1425.63049     553.7111     441.5208
   1425.61523     555.1168     442.8198   1425.61523     555.1168     442.8198
   1425.59998     555.6724     444.0847   1425.59998     555.6724     444.0847
   1425.58472     556.4193     444.9405   1425.58472     556.4193     444.9405
   1425.56946     558.8958     446.0770   1425.56946     558.8958     446.0770
   1425.55420     560.2746     447.3073   1425.55420     560.2746     447.3073
   1425.53894     560.8546     449.0107   1425.53894     560.8546     449.0107
   1425.52368     562.6611     449.6302   1425.52368     562.6611     449.6302
   1425.50842     562.1702     450.0493   1425.50842     562.1702     450.0493
   1425.49316     564.7969     451.7258   1425.49316     564.7969     451.7258
   1425.47791     564.4561     452.6771   1425.47791     564.4561     452.6771
   1425.46265     565.4291     453.6181   1425.46265     565.4291     453.6181
   1425.44739     565.7966     454.0282   1425.44739     565.7966     454.0282
   1425.43213     568.3043     455.7029   1425.43213     568.3043     455.7029
   1425.41687     569.8327     456.9724   1425.41687     569.8327     456.9724
   1425.40161     569.1459     458.0599   1425.40161     569.1459     458.0599
   1425.38635     569.7829     458.4480   1425.38635     569.7829     458.4480
   1425.37109     571.0630     459.5121   1425.37109     571.0630     459.5121
   1425.35583     571.9227     459.8913   1425.35583     571.9227     459.8913
   1425.34058     571.4826     461.6468   1425.34058     571.4826     461.6468
   1425.32532     573.1378     462.7663   1425.32532     573.1378     462.7663
   1425.31006     574.3240     462.8578   1425.31006     574.3240     462.8578
   1425.29480     575.3910     463.1702   1425.29480     575.3910     463.1702
   1425.27954     575.5399     464.3080   1425.27954     575.5399     464.3080
   1425.26428     575.7868     466.0538   1425.26428     575.7868     466.0538
   1425.24902     576.6814     467.1631   1425.24902     576.6814     467.1631
   1425.23376     577.5477     467.9865   1425.23376     577.5477     467.9865
   1425.21851     577.5362     468.7199   1425.21851     577.5362     468.7199
   1425.20325     578.4150     469.5215   1425.20325     578.4150     469.5215
   1425.18799     579.7966     470.2099   1425.18799     579.7966     470.2099
   1425.17273     579.4885     471.2275   1425.17273     579.4885     471.2275
   1425.15747     580.9872     471.7188   1425.15747     580.9872     471.7188
   1425.14221     580.7749     473.0983   1425.14221     580.7749     473.0983
   1425.12695     580.8496     473.4546   1425.12695     580.8496     473.4546
   1425.11169     581.4870     474.1169   1425.11169     581.4870     474.1169
   1425.09644     582.3978     474.6993   1425.09644     582.3978     474.6993
   1425.08118     582.5502     475.2515   1425.08118     582.5502     475.2515
   1425.06592     582.5319     476.6975   1425.06592     582.5319     476.6975
   1425.05066     583.6356     477.7072   1425.05066     583.6356     477.7072
   1425.03540     584.6503     477.6543   1425.03540     584.6503     477.6543
   1425.02014     585.1884     479.6325   1425.02014     585.1884     479.6325
   1425.00488     584.8821     479.8876   1425.00488     584.8821     479.8876
   1424.98962     584.3638     479.8218   1424.98962     584.3638     479.8218
   1424.97437     584.5565     480.5260   1424.97437     584.5565     480.5260
   1424.95911     584.7619     482.2125   1424.95911     584.7619     482.2125
   1424.94385     585.2642     482.2399   1424.94385     585.2642     482.2399
   1424.92859     584.9342     483.2599   1424.92859     584.9342     483.2599
   1424.91333     585.9257     483.3621   1424.91333     585.9257     483.3621
   1424.89807     586.5651     483.8766   1424.89807     586.5651     483.8766
   1424.88281     587.1400     484.4629   1424.88281     587.1400     484.4629
   1424.86755     586.6104     485.1224   1424.86755     586.6104     485.1224
   1424.85229     587.4181     486.6195   1424.85229     587.4181     486.6195
   1424.83704     587.4539     486.7059   1424.83704     587.4539     486.7059
   1424.82178     587.8519     487.3365   1424.82178     587.8519     487.3365
   1424.80652     587.6838     487.9808   1424.80652     587.6838     487.9808
   1424.79126     587.3076     488.0285   1424.79126     587.3076     488.0285
   1424.77600     587.6879     488.6712   1424.77600     587.6879     488.6712
   1424.76074     588.1818     489.4117   1424.76074     588.1818     489.4117
   1424.74548     587.7996     490.6664   1424.74548     587.7996     490.6664
   1424.73022     588.3177     491.5302   1424.73022     588.3177     491.5302
   1424.71497     588.8486     490.8158   1424.71497     588.8486     490.8158
   1424.69971     588.0531     491.6884   1424.69971     588.0531     491.6884
   1424.68445     588.6910     492.4662   1424.68445     588.6910     492.4662
   1424.66919     588.7255     492.8757   1424.66919     588.7255     492.8757
   1424.65393     589.0231     493.2879   1424.65393     589.0231     493.2879
   1424.63867     588.5977     493.9386   1424.63867     588.5977     493.9386
   1424.62341     588.2834     493.4900   1424.62341     588.2834     493.4900
   1424.60815     589.3543     494.9168   1424.60815     589.3543     494.9168
   1424.59290     589.4387     495.3772   1424.59290     589.4387     495.3772
   1424.57764     587.7595     495.3684   1424.57764     587.7595     495.3684
   1424.56238     587.3511     496.6440   1424.56238     587.3511     496.6440
   1424.54712     588.5369     496.4112   1424.54712     588.5369     496.4112
   1424.53186     587.8922     497.8829   1424.53186     587.8922     497.8829
   1424.51660     588.9224     496.8210   1424.51660     588.9224     496.8210
   1424.50134     587.9514     497.5220   1424.50134     587.9514     497.5220
   1424.48608     588.9425     498.6667   1424.48608     588.9425     498.6667
   1424.47083     587.7300     498.3199   1424.47083     587.7300     498.3199
   1424.45557     587.7141     500.0023   1424.45557     587.7141     500.0023
   1424.44031     588.1189     499.9401   1424.44031     588.1189     499.9401
   1424.42505     587.8702     499.4326   1424.42505     587.8702     499.4326
   1424.40979     587.3423     500.4139   1424.40979     587.3423     500.4139
   1424.39453     587.5458     500.8507   1424.39453     587.5458     500.8507
   1424.37927     587.3560     500.9694   1424.37927     587.3560     500.9694
   1424.36401     587.7325     501.5431   1424.36401     587.7325     501.5431
   1424.34875     587.2924     501.6171   1424.34875     587.2924     501.6171
   1424.33350     586.3923     502.4749   1424.33350     586.3923     502.4749
   1424.31824     587.5761     502.3094   1424.31824     587.5761     502.3094
   1424.30298     586.9584     502.6569   1424.30298     586.9584     502.6569
   1424.28772     587.0637     503.3962   1424.28772     587.0637     503.3962
   1424.27246     588.2422     503.4677   1424.27246     588.2422     503.4677
   1424.25720     587.3772     504.1602   1424.25720     587.3772     504.1602
   1424.24194     586.5887     503.8882   1424.24194     586.5887     503.8882
   1424.22668     586.1587     504.5889   1424.22668     586.1587     504.5889
   1424.21143     586.0803     504.7907   1424.21143     586.0803     504.7907
   1424.19617     586.3049     505.5703   1424.19617     586.3049     505.5703
   1424.18091     586.3530     505.6105   1424.18091     586.3530     505.6105
   1424.16565     586.4003     506.1977   1424.16565     586.4003     506.1977
