#     FILENAME=!Skynet_57528_lach-hhg-113_20384_20937.cyb.fits
#     BASENAME=Skynet_57528_lach-hhg-113_20384_20937
#     SRC_NAME=lach-hhg-113
#     OBSERVER=hhgmadison16_9500
#     DATE_OBS=2016-05-20T16:23:41.250
#        OBSID=20384
#      SCANNUM=20937
#          MJD=57528.6842
#          UTC=59111
#     SCANTYPE=track
#     DATAMODE=HIRES
#     TUNEFREQ=1420.0000
# Actual_FREQ1=1420.0000
# Actual_FREQ2=1420.0000
#    LO1Tuning=6870.000
#     RFFILTER=1355_1435
#        OBSBW=-15.6250
#        NCHAN=1024 
#        FOCUS=37.0709
#           RA=23:27:33.47
#          DEC=61:14:27.19
#      RA(hrs)=23.459300
#     DEC(deg)=61.240900
#    AZIM(deg)=322.460
#    ELEV(deg)=50.489
#     IFattens=11.00, 10.00
#      WARNING=None
#    TCAL_XL1=7.9635
#    TCAL_YR1=9.1340
#    TCAL_XL2=7.9635
#    TCAL_YR2=9.1340
#     TRX_XL1=11.7060
#     TRX_YR1=11.7060
#     TRX_XL2=11.7060
#     TRX_YR2=11.7060
#        TAVE=1.0000
#Freq1(MHz)          XL1          YR1  Freq2(MHz)          XL2          YR2 

   1427.81250     301.2888     228.6637   1427.81250     301.2888     228.6637
   1427.79724     302.3837     228.7463   1427.79724     302.3837     228.7463
   1427.78198     302.5891     229.3673   1427.78198     302.5891     229.3673
   1427.76672     303.3017     230.0864   1427.76672     303.3017     230.0864
   1427.75146     304.5242     230.7951   1427.75146     304.5242     230.7951
   1427.73621     305.2056     231.0252   1427.73621     305.2056     231.0252
   1427.72095     305.9457     231.6260   1427.72095     305.9457     231.6260
   1427.70569     306.2032     232.3508   1427.70569     306.2032     232.3508
   1427.69043     306.8760     233.4978   1427.69043     306.8760     233.4978
   1427.67517     307.9725     234.1386   1427.67517     307.9725     234.1386
   1427.65991     309.2363     234.9407   1427.65991     309.2363     234.9407
   1427.64465     310.1057     236.3965   1427.64465     310.1057     236.3965
   1427.62939     311.4248     236.9873   1427.62939     311.4248     236.9873
   1427.61414     312.5218     237.8593   1427.61414     312.5218     237.8593
   1427.59888     313.1807     238.4150   1427.59888     313.1807     238.4150
   1427.58362     314.1124     239.5036   1427.58362     314.1124     239.5036
   1427.56836     315.3598     240.5062   1427.56836     315.3598     240.5062
   1427.55310     316.4565     241.8456   1427.55310     316.4565     241.8456
   1427.53784     318.1059     242.6011   1427.53784     318.1059     242.6011
   1427.52258     318.6675     243.6705   1427.52258     318.6675     243.6705
   1427.50732     320.5978     244.7228   1427.50732     320.5978     244.7228
   1427.49207     322.0183     246.3060   1427.49207     322.0183     246.3060
   1427.47681     323.0667     247.2577   1427.47681     323.0667     247.2577
   1427.46155     325.4406     248.6975   1427.46155     325.4406     248.6975
   1427.44629     325.9838     249.8943   1427.44629     325.9838     249.8943
   1427.43103     327.8740     251.1681   1427.43103     327.8740     251.1681
   1427.41577     328.7299     252.7109   1427.41577     328.7299     252.7109
   1427.40051     330.5056     254.0290   1427.40051     330.5056     254.0290
   1427.38525     332.3163     254.8393   1427.38525     332.3163     254.8393
   1427.37000     334.1444     256.5200   1427.37000     334.1444     256.5200
   1427.35474     335.9121     258.3836   1427.35474     335.9121     258.3836
   1427.33948     337.5575     258.9025   1427.33948     337.5575     258.9025
   1427.32422     339.2738     261.0659   1427.32422     339.2738     261.0659
   1427.30896     340.9953     262.5217   1427.30896     340.9953     262.5217
   1427.29370     342.6220     263.6862   1427.29370     342.6220     263.6862
   1427.27844     344.4706     265.8131   1427.27844     344.4706     265.8131
   1427.26318     345.9489     267.5117   1427.26318     345.9489     267.5117
   1427.24792     348.2734     268.7107   1427.24792     348.2734     268.7107
   1427.23267     350.0870     270.2411   1427.23267     350.0870     270.2411
   1427.21741     351.8209     272.3043   1427.21741     351.8209     272.3043
   1427.20215     354.2132     273.7246   1427.20215     354.2132     273.7246
   1427.18689     356.1557     275.1924   1427.18689     356.1557     275.1924
   1427.17163     357.7038     277.2489   1427.17163     357.7038     277.2489
   1427.15637     359.8309     278.8728   1427.15637     359.8309     278.8728
   1427.14111     361.7119     281.1006   1427.14111     361.7119     281.1006
   1427.12585     363.9288     282.3090   1427.12585     363.9288     282.3090
   1427.11060     365.9489     284.3937   1427.11060     365.9489     284.3937
   1427.09534     368.5297     286.3733   1427.09534     368.5297     286.3733
   1427.08008     369.7995     287.5854   1427.08008     369.7995     287.5854
   1427.06482     372.7231     289.4715   1427.06482     372.7231     289.4715
   1427.04956     374.7843     291.6005   1427.04956     374.7843     291.6005
   1427.03430     377.1959     293.4185   1427.03430     377.1959     293.4185
   1427.01904     379.3998     295.5898   1427.01904     379.3998     295.5898
   1427.00378     381.1020     297.2634   1427.00378     381.1020     297.2634
   1426.98853     383.8058     299.1141   1426.98853     383.8058     299.1141
   1426.97327     385.8966     301.0999   1426.97327     385.8966     301.0999
   1426.95801     388.4809     303.3516   1426.95801     388.4809     303.3516
   1426.94275     390.3119     305.0773   1426.94275     390.3119     305.0773
   1426.92749     392.9175     306.6363   1426.92749     392.9175     306.6363
   1426.91223     395.0536     308.7639   1426.91223     395.0536     308.7639
   1426.89697     397.3386     311.0437   1426.89697     397.3386     311.0437
   1426.88171     399.9943     312.6773   1426.88171     399.9943     312.6773
   1426.86646     401.8197     314.8885   1426.86646     401.8197     314.8885
   1426.85120     404.9019     317.0420   1426.85120     404.9019     317.0420
   1426.83594     406.6788     318.9288   1426.83594     406.6788     318.9288
   1426.82068     409.2962     321.5337   1426.82068     409.2962     321.5337
   1426.80542     411.9241     323.6392   1426.80542     411.9241     323.6392
   1426.79016     414.4666     325.4313   1426.79016     414.4666     325.4313
   1426.77490     416.2928     327.2045   1426.77490     416.2928     327.2045
   1426.75964     418.6930     329.2627   1426.75964     418.6930     329.2627
   1426.74438     421.2968     331.4995   1426.74438     421.2968     331.4995
   1426.72913     423.4644     333.1511   1426.72913     423.4644     333.1511
   1426.71387     425.7886     335.1312   1426.71387     425.7886     335.1312
   1426.69861     428.2406     337.7639   1426.69861     428.2406     337.7639
   1426.68335     430.7552     339.3104   1426.68335     430.7552     339.3104
   1426.66809     433.3293     342.0453   1426.66809     433.3293     342.0453
   1426.65283     435.8052     343.8238   1426.65283     435.8052     343.8238
   1426.63757     438.2642     346.1572   1426.63757     438.2642     346.1572
   1426.62231     440.0891     351.0531   1426.62231     440.0891     351.0531
   1426.60706     442.1675     351.3159   1426.60706     442.1675     351.3159
   1426.59180     444.8416     352.1450   1426.59180     444.8416     352.1450
   1426.57654     446.7133     354.3166   1426.57654     446.7133     354.3166
   1426.56128     450.0052     356.5109   1426.56128     450.0052     356.5109
   1426.54602     451.7952     358.2180   1426.54602     451.7952     358.2180
   1426.53076     454.6081     360.1425   1426.53076     454.6081     360.1425
   1426.51550     456.8863     363.1768   1426.51550     456.8863     363.1768
   1426.50024     458.9766     364.5209   1426.50024     458.9766     364.5209
   1426.48499     460.9614     366.1958   1426.48499     460.9614     366.1958
   1426.46973     464.5395     368.6875   1426.46973     464.5395     368.6875
   1426.45447     466.6865     370.6331   1426.45447     466.6865     370.6331
   1426.43921     468.5974     372.8762   1426.43921     468.5974     372.8762
   1426.42395     471.2010     375.6306   1426.42395     471.2010     375.6306
   1426.40869     472.9500     376.9643   1426.40869     472.9500     376.9643
   1426.39343     475.2900     379.0617   1426.39343     475.2900     379.0617
   1426.37817     477.7727     381.5219   1426.37817     477.7727     381.5219
   1426.36292     479.8108     383.5003   1426.36292     479.8108     383.5003
   1426.34766     482.8601     384.8137   1426.34766     482.8601     384.8137
   1426.33240     484.6958     386.5967   1426.33240     484.6958     386.5967
   1426.31714     486.9914     389.0210   1426.31714     486.9914     389.0210
   1426.30188     489.0117     390.8229   1426.30188     489.0117     390.8229
   1426.28662     490.8729     392.7078   1426.28662     490.8729     392.7078
   1426.27136     492.6475     395.2054   1426.27136     492.6475     395.2054
   1426.25610     495.1387     397.2050   1426.25610     495.1387     397.2050
   1426.24084     497.7431     398.5605   1426.24084     497.7431     398.5605
   1426.22559     499.3316     400.2434   1426.22559     499.3316     400.2434
   1426.21033     500.4738     402.6986   1426.21033     500.4738     402.6986
   1426.19507     502.9547     404.5691   1426.19507     502.9547     404.5691
   1426.17981     505.5154     406.5460   1426.17981     505.5154     406.5460
   1426.16455     507.9756     407.8304   1426.16455     507.9756     407.8304
   1426.14929     510.1741     410.5258   1426.14929     510.1741     410.5258
   1426.13403     511.8930     412.3965   1426.13403     511.8930     412.3965
   1426.11877     514.4055     413.7228   1426.11877     514.4055     413.7228
   1426.10352     516.3430     415.2934   1426.10352     516.3430     415.2934
   1426.08826     517.6712     417.7065   1426.08826     517.6712     417.7065
   1426.07300     518.9670     419.7803   1426.07300     518.9670     419.7803
   1426.05774     522.0577     421.5811   1426.05774     522.0577     421.5811
   1426.04248     523.1980     422.7094   1426.04248     523.1980     422.7094
   1426.02722     525.4230     424.7576   1426.02722     525.4230     424.7576
   1426.01196     527.0972     427.3099   1426.01196     527.0972     427.3099
   1425.99670     529.6168     428.0777   1425.99670     529.6168     428.0777
   1425.98145     530.9901     430.0568   1425.98145     530.9901     430.0568
   1425.96619     533.2474     431.5884   1425.96619     533.2474     431.5884
   1425.95093     534.0699     433.2248   1425.95093     534.0699     433.2248
   1425.93567     536.0300     435.2122   1425.93567     536.0300     435.2122
   1425.92041     537.0129     436.8977   1425.92041     537.0129     436.8977
   1425.90515     539.8209     438.1636   1425.90515     539.8209     438.1636
   1425.88989     540.8341     440.1782   1425.88989     540.8341     440.1782
   1425.87463     542.5676     441.9139   1425.87463     542.5676     441.9139
   1425.85938     544.9063     443.9322   1425.85938     544.9063     443.9322
   1425.84412     546.0850     444.9071   1425.84412     546.0850     444.9071
   1425.82886     548.1181     447.2052   1425.82886     548.1181     447.2052
   1425.81360     549.0673     448.5225   1425.81360     549.0673     448.5225
   1425.79834     550.5438     450.5289   1425.79834     550.5438     450.5289
   1425.78308     552.6092     451.6295   1425.78308     552.6092     451.6295
   1425.76782     553.2611     452.8555   1425.76782     553.2611     452.8555
   1425.75256     554.0983     454.8786   1425.75256     554.0983     454.8786
   1425.73730     556.4916     456.2320   1425.73730     556.4916     456.2320
   1425.72205     557.7061     457.1969   1425.72205     557.7061     457.1969
   1425.70679     559.5658     458.5925   1425.70679     559.5658     458.5925
   1425.69153     560.6947     461.1958   1425.69153     560.6947     461.1958
   1425.67627     561.1922     461.7664   1425.67627     561.1922     461.7664
   1425.66101     563.1454     463.8210   1425.66101     563.1454     463.8210
   1425.64575     564.8468     465.4961   1425.64575     564.8468     465.4961
   1425.63049     566.2152     466.2348   1425.63049     566.2152     466.2348
   1425.61523     567.2009     467.7376   1425.61523     567.2009     467.7376
   1425.59998     568.9557     470.3335   1425.59998     568.9557     470.3335
   1425.58472     569.3071     471.7255   1425.58472     569.3071     471.7255
   1425.56946     570.5309     472.5332   1425.56946     570.5309     472.5332
   1425.55420     571.3434     473.3161   1425.55420     571.3434     473.3161
   1425.53894     573.1463     474.9845   1425.53894     573.1463     474.9845
   1425.52368     574.6475     477.3199   1425.52368     574.6475     477.3199
   1425.50842     575.9358     478.2313   1425.50842     575.9358     478.2313
   1425.49316     576.3131     479.2704   1425.49316     576.3131     479.2704
   1425.47791     577.4656     480.3567   1425.47791     577.4656     480.3567
   1425.46265     577.6395     481.9201   1425.46265     577.6395     481.9201
   1425.44739     578.8051     483.0450   1425.44739     578.8051     483.0450
   1425.43213     579.4634     484.3697   1425.43213     579.4634     484.3697
   1425.41687     581.2563     485.2910   1425.41687     581.2563     485.2910
   1425.40161     582.2094     486.2861   1425.40161     582.2094     486.2861
   1425.38635     582.3604     487.5900   1425.38635     582.3604     487.5900
   1425.37109     583.5692     489.2988   1425.37109     583.5692     489.2988
   1425.35583     584.1696     489.9725   1425.35583     584.1696     489.9725
   1425.34058     585.0725     491.7151   1425.34058     585.0725     491.7151
   1425.32532     586.6212     492.9775   1425.32532     586.6212     492.9775
   1425.31006     587.1934     493.9532   1425.31006     587.1934     493.9532
   1425.29480     587.6733     495.4856   1425.29480     587.6733     495.4856
   1425.27954     589.0259     496.4082   1425.27954     589.0259     496.4082
   1425.26428     589.0031     497.5760   1425.26428     589.0031     497.5760
   1425.24902     590.4745     498.2126   1425.24902     590.4745     498.2126
   1425.23376     590.7660     498.7260   1425.23376     590.7660     498.7260
   1425.21851     591.2586     500.9469   1425.21851     591.2586     500.9469
   1425.20325     591.4510     501.2263   1425.20325     591.4510     501.2263
   1425.18799     592.1188     502.8584   1425.18799     592.1188     502.8584
   1425.17273     592.7126     503.6859   1425.17273     592.7126     503.6859
   1425.15747     594.6740     505.3530   1425.15747     594.6740     505.3530
   1425.14221     594.2336     505.9568   1425.14221     594.2336     505.9568
   1425.12695     595.7021     506.7660   1425.12695     595.7021     506.7660
   1425.11169     594.6154     508.3188   1425.11169     594.6154     508.3188
   1425.09644     595.8379     508.6737   1425.09644     595.8379     508.6737
   1425.08118     596.4176     509.5199   1425.08118     596.4176     509.5199
   1425.06592     596.8809     510.1779   1425.06592     596.8809     510.1779
   1425.05066     597.1556     513.1639   1425.05066     597.1556     513.1639
   1425.03540     597.6970     512.0563   1425.03540     597.6970     512.0563
   1425.02014     597.7944     514.0092   1425.02014     597.7944     514.0092
   1425.00488     598.0869     514.9936   1425.00488     598.0869     514.9936
   1424.98962     598.2278     516.0488   1424.98962     598.2278     516.0488
   1424.97437     599.3254     517.0576   1424.97437     599.3254     517.0576
   1424.95911     598.5637     517.5558   1424.95911     598.5637     517.5558
   1424.94385     599.0889     519.0991   1424.94385     599.0889     519.0991
   1424.92859     599.5327     518.6769   1424.92859     599.5327     518.6769
   1424.91333     600.1694     520.2473   1424.91333     600.1694     520.2473
   1424.89807     601.3496     520.8514   1424.89807     601.3496     520.8514
   1424.88281     599.8926     521.9180   1424.88281     599.8926     521.9180
   1424.86755     600.6392     523.5271   1424.86755     600.6392     523.5271
   1424.85229     601.6444     523.9535   1424.85229     601.6444     523.9535
   1424.83704     601.6411     524.2774   1424.83704     601.6411     524.2774
   1424.82178     602.1500     524.8694   1424.82178     602.1500     524.8694
   1424.80652     601.6285     526.3898   1424.80652     601.6285     526.3898
   1424.79126     601.5038     525.6414   1424.79126     601.5038     525.6414
   1424.77600     601.9525     527.1542   1424.77600     601.9525     527.1542
   1424.76074     603.3024     527.5140   1424.76074     603.3024     527.5140
   1424.74548     603.2637     527.8306   1424.74548     603.2637     527.8306
   1424.73022     602.7537     529.1125   1424.73022     602.7537     529.1125
   1424.71497     602.1807     529.8610   1424.71497     602.1807     529.8610
   1424.69971     602.1763     530.9610   1424.69971     602.1763     530.9610
   1424.68445     602.0274     531.7374   1424.68445     602.0274     531.7374
   1424.66919     602.7932     532.0717   1424.66919     602.7932     532.0717
   1424.65393     602.4225     531.9098   1424.65393     602.4225     531.9098
   1424.63867     602.8578     533.6602   1424.63867     602.8578     533.6602
   1424.62341     602.8489     533.4348   1424.62341     602.8489     533.4348
   1424.60815     603.9816     534.8784   1424.60815     603.9816     534.8784
   1424.59290     603.5316     534.7725   1424.59290     603.5316     534.7725
   1424.57764     603.6822     535.6059   1424.57764     603.6822     535.6059
   1424.56238     602.3701     537.2677   1424.56238     602.3701     537.2677
   1424.54712     603.3826     536.6819   1424.54712     603.3826     536.6819
   1424.53186     602.3729     537.7518   1424.53186     602.3729     537.7518
   1424.51660     603.3057     537.9801   1424.51660     603.3057     537.9801
   1424.50134     602.4619     538.3954   1424.50134     602.4619     538.3954
   1424.48608     603.2905     538.8193   1424.48608     603.2905     538.8193
   1424.47083     603.0095     539.2983   1424.47083     603.0095     539.2983
   1424.45557     602.9726     540.9756   1424.45557     602.9726     540.9756
   1424.44031     603.3509     541.0211   1424.44031     603.3509     541.0211
   1424.42505     602.9543     540.7223   1424.42505     602.9543     540.7223
   1424.40979     603.0397     542.1151   1424.40979     603.0397     542.1151
   1424.39453     602.7827     543.0685   1424.39453     602.7827     543.0685
   1424.37927     603.0131     542.6300   1424.37927     603.0131     542.6300
   1424.36401     602.8450     543.5498   1424.36401     602.8450     543.5498
   1424.34875     602.8794     544.3645   1424.34875     602.8794     544.3645
   1424.33350     601.5878     544.2105   1424.33350     601.5878     544.2105
   1424.31824     601.1868     544.3046   1424.31824     601.1868     544.3046
   1424.30298     601.6757     544.3410   1424.30298     601.6757     544.3410
   1424.28772     601.5795     545.9258   1424.28772     601.5795     545.9258
   1424.27246     601.4377     545.5887   1424.27246     601.4377     545.5887
   1424.25720     601.3362     546.5178   1424.25720     601.3362     546.5178
   1424.24194     602.1921     547.0219   1424.24194     602.1921     547.0219
   1424.22668     600.7403     547.0630   1424.22668     600.7403     547.0630
   1424.21143     600.4391     546.9168   1424.21143     600.4391     546.9168
   1424.19617     600.9938     548.7034   1424.19617     600.9938     548.7034
   1424.18091     600.7050     548.2668   1424.18091     600.7050     548.2668
   1424.16565     600.8230     548.7875   1424.16565     600.8230     548.7875
