#     FILENAME=!Skynet_57528_lach-cc-241_20657_21014.cyb.fits
#     BASENAME=Skynet_57528_lach-cc-241_20657_21014
#     SRC_NAME=lach-cc-241
#     OBSERVER=ccmadison16_9505
#     DATE_OBS=2016-05-20T19:03:53.430
#        OBSID=20657
#      SCANNUM=21014
#          MJD=57528.7954
#          UTC=68722
#     SCANTYPE=track
#     DATAMODE=HIRES
#     TUNEFREQ=1420.0000
# Actual_FREQ1=1420.0000
# Actual_FREQ2=1420.0000
#    LO1Tuning=6870.000
#     RFFILTER=1355_1435
#        OBSBW=-15.6250
#        NCHAN=1024 
#        FOCUS=37.0489
#           RA=07:46:04.00
#          DEC=-24:45:24.60
#      RA(hrs)=7.767800
#     DEC(deg)=-24.756800
#    AZIM(deg)=148.966
#    ELEV(deg)=19.991
#     IFattens=11.00, 10.00
#      WARNING=None
#    TCAL_XL1=7.9635
#    TCAL_YR1=9.1340
#    TCAL_XL2=7.9635
#    TCAL_YR2=9.1340
#     TRX_XL1=11.7060
#     TRX_YR1=11.7060
#     TRX_XL2=11.7060
#     TRX_YR2=11.7060
#        TAVE=1.0000
#Freq1(MHz)          XL1          YR1  Freq2(MHz)          XL2          YR2 

   1427.81250     303.7725     244.1349   1427.81250     303.7725     244.1349
   1427.79724     304.9718     243.9199   1427.79724     304.9718     243.9199
   1427.78198     305.3108     244.6770   1427.78198     305.3108     244.6770
   1427.76672     305.8965     244.5627   1427.76672     305.8965     244.5627
   1427.75146     306.8315     245.5045   1427.75146     306.8315     245.5045
   1427.73621     307.4395     246.0948   1427.73621     307.4395     246.0948
   1427.72095     307.8627     246.8787   1427.72095     307.8627     246.8787
   1427.70569     308.2437     247.5886   1427.70569     308.2437     247.5886
   1427.69043     309.4395     247.7770   1427.69043     309.4395     247.7770
   1427.67517     310.0464     248.5359   1427.67517     310.0464     248.5359
   1427.65991     311.3000     249.4769   1427.65991     311.3000     249.4769
   1427.64465     312.2453     250.1966   1427.64465     312.2453     250.1966
   1427.62939     313.3576     250.7713   1427.62939     313.3576     250.7713
   1427.61414     313.5591     251.7818   1427.61414     313.5591     251.7818
   1427.59888     314.7229     252.5919   1427.59888     314.7229     252.5919
   1427.58362     316.3851     253.8434   1427.58362     316.3851     253.8434
   1427.56836     317.1907     253.9672   1427.56836     317.1907     253.9672
   1427.55310     317.9043     255.0808   1427.55310     317.9043     255.0808
   1427.53784     319.8580     256.3566   1427.53784     319.8580     256.3566
   1427.52258     321.0813     257.5998   1427.52258     321.0813     257.5998
   1427.50732     322.3626     258.6238   1427.50732     322.3626     258.6238
   1427.49207     323.5644     259.3373   1427.49207     323.5644     259.3373
   1427.47681     324.5827     260.2340   1427.47681     324.5827     260.2340
   1427.46155     326.6236     262.0732   1427.46155     326.6236     262.0732
   1427.44629     327.5004     262.5226   1427.44629     327.5004     262.5226
   1427.43103     329.5647     263.9341   1427.43103     329.5647     263.9341
   1427.41577     330.5910     265.0720   1427.41577     330.5910     265.0720
   1427.40051     332.7046     266.5045   1427.40051     332.7046     266.5045
   1427.38525     333.3134     267.4592   1427.38525     333.3134     267.4592
   1427.37000     335.2891     269.2747   1427.37000     335.2891     269.2747
   1427.35474     337.4478     270.1604   1427.35474     337.4478     270.1604
   1427.33948     338.8499     271.2659   1427.33948     338.8499     271.2659
   1427.32422     340.6705     273.0037   1427.32422     340.6705     273.0037
   1427.30896     342.4902     274.4236   1427.30896     342.4902     274.4236
   1427.29370     344.3148     275.4802   1427.29370     344.3148     275.4802
   1427.27844     345.8621     277.0263   1427.27844     345.8621     277.0263
   1427.26318     347.5748     278.4033   1427.26318     347.5748     278.4033
   1427.24792     349.4025     280.2708   1427.24792     349.4025     280.2708
   1427.23267     350.9707     281.4326   1427.23267     350.9707     281.4326
   1427.21741     353.3987     282.8099   1427.21741     353.3987     282.8099
   1427.20215     355.0317     284.6478   1427.20215     355.0317     284.6478
   1427.18689     357.3236     286.0954   1427.18689     357.3236     286.0954
   1427.17163     359.2059     287.8983   1427.17163     359.2059     287.8983
   1427.15637     361.1862     289.2251   1427.15637     361.1862     289.2251
   1427.14111     363.4207     291.4785   1427.14111     363.4207     291.4785
   1427.12585     365.0944     292.6995   1427.12585     365.0944     292.6995
   1427.11060     367.5937     293.9698   1427.11060     367.5937     293.9698
   1427.09534     369.1962     296.0497   1427.09534     369.1962     296.0497
   1427.08008     371.8904     297.4196   1427.08008     371.8904     297.4196
   1427.06482     373.8460     299.2313   1427.06482     373.8460     299.2313
   1427.04956     375.8839     301.3647   1427.04956     375.8839     301.3647
   1427.03430     377.3932     303.0793   1427.03430     377.3932     303.0793
   1427.01904     380.3639     304.4112   1427.01904     380.3639     304.4112
   1427.00378     382.6633     306.2746   1427.00378     382.6633     306.2746
   1426.98853     384.7308     308.4930   1426.98853     384.7308     308.4930
   1426.97327     387.1517     310.2657   1426.97327     387.1517     310.2657
   1426.95801     389.4239     311.8970   1426.95801     389.4239     311.8970
   1426.94275     391.6128     313.6526   1426.94275     391.6128     313.6526
   1426.92749     393.6913     315.7382   1426.92749     393.6913     315.7382
   1426.91223     395.5904     317.8065   1426.91223     395.5904     317.8065
   1426.89697     398.2621     319.2603   1426.89697     398.2621     319.2603
   1426.88171     400.7532     321.2720   1426.88171     400.7532     321.2720
   1426.86646     402.4399     323.6703   1426.86646     402.4399     323.6703
   1426.85120     404.7386     324.9148   1426.85120     404.7386     324.9148
   1426.83594     408.4384     327.1156   1426.83594     408.4384     327.1156
   1426.82068     409.9921     329.2772   1426.82068     409.9921     329.2772
   1426.80542     412.8844     331.4680   1426.80542     412.8844     331.4680
   1426.79016     414.1232     333.0508   1426.79016     414.1232     333.0508
   1426.77490     416.9832     334.6148   1426.77490     416.9832     334.6148
   1426.75964     419.3294     337.1844   1426.75964     419.3294     337.1844
   1426.74438     421.6210     339.1759   1426.74438     421.6210     339.1759
   1426.72913     423.4749     340.9273   1426.72913     423.4749     340.9273
   1426.71387     426.5671     342.8110   1426.71387     426.5671     342.8110
   1426.69861     429.0591     345.2312   1426.69861     429.0591     345.2312
   1426.68335     431.8360     346.8110   1426.68335     431.8360     346.8110
   1426.66809     433.6190     348.9296   1426.66809     433.6190     348.9296
   1426.65283     435.8191     350.3382   1426.65283     435.8191     350.3382
   1426.63757     438.3234     353.0269   1426.63757     438.3234     353.0269
   1426.62231     444.0147     355.7513   1426.62231     444.0147     355.7513
   1426.60706     443.7089     357.2044   1426.60706     443.7089     357.2044
   1426.59180     446.9140     359.2154   1426.59180     446.9140     359.2154
   1426.57654     448.3353     361.7967   1426.57654     448.3353     361.7967
   1426.56128     450.5970     363.3663   1426.56128     450.5970     363.3663
   1426.54602     452.4471     364.8476   1426.54602     452.4471     364.8476
   1426.53076     454.9374     367.1369   1426.53076     454.9374     367.1369
   1426.51550     457.1224     369.5841   1426.51550     457.1224     369.5841
   1426.50024     460.5039     371.2617   1426.50024     460.5039     371.2617
   1426.48499     462.0435     373.3969   1426.48499     462.0435     373.3969
   1426.46973     465.4012     375.4876   1426.46973     465.4012     375.4876
   1426.45447     467.6384     377.4735   1426.45447     467.6384     377.4735
   1426.43921     469.7250     379.4261   1426.43921     469.7250     379.4261
   1426.42395     471.5307     381.6593   1426.42395     471.5307     381.6593
   1426.40869     474.1774     383.1476   1426.40869     474.1774     383.1476
   1426.39343     476.1737     385.7777   1426.39343     476.1737     385.7777
   1426.37817     478.6875     387.4802   1426.37817     478.6875     387.4802
   1426.36292     481.9376     389.5233   1426.36292     481.9376     389.5233
   1426.34766     482.7620     391.5767   1426.34766     482.7620     391.5767
   1426.33240     485.4590     393.4567   1426.33240     485.4590     393.4567
   1426.31714     487.3584     395.5468   1426.31714     487.3584     395.5468
   1426.30188     489.7718     397.5405   1426.30188     489.7718     397.5405
   1426.28662     492.4190     399.6087   1426.28662     492.4190     399.6087
   1426.27136     494.5558     401.4973   1426.27136     494.5558     401.4973
   1426.25610     496.7269     403.1065   1426.25610     496.7269     403.1065
   1426.24084     499.1546     404.9357   1426.24084     499.1546     404.9357
   1426.22559     500.9793     407.0121   1426.22559     500.9793     407.0121
   1426.21033     503.4064     409.2108   1426.21033     503.4064     409.2108
   1426.19507     505.4907     411.1165   1426.19507     505.4907     411.1165
   1426.17981     507.7177     413.1905   1426.17981     507.7177     413.1905
   1426.16455     509.5112     414.9390   1426.16455     509.5112     414.9390
   1426.14929     511.6693     416.9951   1426.14929     511.6693     416.9951
   1426.13403     513.6935     418.8485   1426.13403     513.6935     418.8485
   1426.11877     516.1577     420.4550   1426.11877     516.1577     420.4550
   1426.10352     517.3018     422.7474   1426.10352     517.3018     422.7474
   1426.08826     520.1957     424.6043   1426.08826     520.1957     424.6043
   1426.07300     522.4016     426.5728   1426.07300     522.4016     426.5728
   1426.05774     523.9807     428.7534   1426.05774     523.9807     428.7534
   1426.04248     526.1710     430.3620   1426.04248     526.1710     430.3620
   1426.02722     527.2612     431.6805   1426.02722     527.2612     431.6805
   1426.01196     529.6500     433.6220   1426.01196     529.6500     433.6220
   1425.99670     531.5498     435.8847   1425.99670     531.5498     435.8847
   1425.98145     532.8435     437.7182   1425.98145     532.8435     437.7182
   1425.96619     535.5831     439.5499   1425.96619     535.5831     439.5499
   1425.95093     536.6127     441.5969   1425.95093     536.6127     441.5969
   1425.93567     538.6709     443.1270   1425.93567     538.6709     443.1270
   1425.92041     540.8476     445.0243   1425.92041     540.8476     445.0243
   1425.90515     542.7427     447.0112   1425.90515     542.7427     447.0112
   1425.88989     544.1097     448.3670   1425.88989     544.1097     448.3670
   1425.87463     546.5882     449.6920   1425.87463     546.5882     449.6920
   1425.85938     547.9298     451.9639   1425.85938     547.9298     451.9639
   1425.84412     549.1428     454.2271   1425.84412     549.1428     454.2271
   1425.82886     551.5601     456.2573   1425.82886     551.5601     456.2573
   1425.81360     551.6084     457.4643   1425.81360     551.6084     457.4643
   1425.79834     555.5737     459.7686   1425.79834     555.5737     459.7686
   1425.78308     555.1116     460.1552   1425.78308     555.1116     460.1552
   1425.76782     556.9291     461.9794   1425.76782     556.9291     461.9794
   1425.75256     559.1602     463.9106   1425.75256     559.1602     463.9106
   1425.73730     560.4935     466.4034   1425.73730     560.4935     466.4034
   1425.72205     562.6940     467.2809   1425.72205     562.6940     467.2809
   1425.70679     562.9958     468.7533   1425.70679     562.9958     468.7533
   1425.69153     563.6153     470.8009   1425.69153     563.6153     470.8009
   1425.67627     566.9146     471.9936   1425.67627     566.9146     471.9936
   1425.66101     566.9835     473.7736   1425.66101     566.9835     473.7736
   1425.64575     569.5435     475.4880   1425.64575     569.5435     475.4880
   1425.63049     570.4924     477.2518   1425.63049     570.4924     477.2518
   1425.61523     571.4572     478.8680   1425.61523     571.4572     478.8680
   1425.59998     572.3002     480.3116   1425.59998     572.3002     480.3116
   1425.58472     574.3568     482.3861   1425.58472     574.3568     482.3861
   1425.56946     575.1513     483.3215   1425.56946     575.1513     483.3215
   1425.55420     576.1208     485.5157   1425.55420     576.1208     485.5157
   1425.53894     577.3190     486.6629   1425.53894     577.3190     486.6629
   1425.52368     578.5521     487.7064   1425.52368     578.5521     487.7064
   1425.50842     579.7430     489.3870   1425.50842     579.7430     489.3870
   1425.49316     582.2642     491.3127   1425.49316     582.2642     491.3127
   1425.47791     583.3679     492.1450   1425.47791     583.3679     492.1450
   1425.46265     584.0247     493.3037   1425.46265     584.0247     493.3037
   1425.44739     583.8751     494.9184   1425.44739     583.8751     494.9184
   1425.43213     585.0535     497.0259   1425.43213     585.0535     497.0259
   1425.41687     586.6659     499.3596   1425.41687     586.6659     499.3596
   1425.40161     588.8253     500.6996   1425.40161     588.8253     500.6996
   1425.38635     590.4639     501.6178   1425.38635     590.4639     501.6178
   1425.37109     588.9984     501.9575   1425.37109     588.9984     501.9575
   1425.35583     590.5253     503.8888   1425.35583     590.5253     503.8888
   1425.34058     590.1122     504.9984   1425.34058     590.1122     504.9984
   1425.32532     592.6904     506.1754   1425.32532     592.6904     506.1754
   1425.31006     593.0182     507.6675   1425.31006     593.0182     507.6675
   1425.29480     593.8604     508.8992   1425.29480     593.8604     508.8992
   1425.27954     595.1490     510.3481   1425.27954     595.1490     510.3481
   1425.26428     595.3240     512.0801   1425.26428     595.3240     512.0801
   1425.24902     596.9425     514.0090   1425.24902     596.9425     514.0090
   1425.23376     597.6067     514.8598   1425.23376     597.6067     514.8598
   1425.21851     598.8434     515.5626   1425.21851     598.8434     515.5626
   1425.20325     599.4989     517.2821   1425.20325     599.4989     517.2821
   1425.18799     599.3599     518.4088   1425.18799     599.3599     518.4088
   1425.17273     600.5275     519.6445   1425.17273     600.5275     519.6445
   1425.15747     601.9258     520.6449   1425.15747     601.9258     520.6449
   1425.14221     602.1990     521.8949   1425.14221     602.1990     521.8949
   1425.12695     605.9463     523.6351   1425.12695     605.9463     523.6351
   1425.11169     602.6096     524.9247   1425.11169     602.6096     524.9247
   1425.09644     603.3584     525.5282   1425.09644     603.3584     525.5282
   1425.08118     603.5988     526.8265   1425.08118     603.5988     526.8265
   1425.06592     604.1995     527.9576   1425.06592     604.1995     527.9576
   1425.05066     603.9003     529.0630   1425.05066     603.9003     529.0630
   1425.03540     605.2933     530.6521   1425.03540     605.2933     530.6521
   1425.02014     605.8934     531.7987   1425.02014     605.8934     531.7987
   1425.00488     608.1229     535.0746   1425.00488     608.1229     535.0746
   1424.98962     609.2664     534.9176   1424.98962     609.2664     534.9176
   1424.97437     606.2109     534.7714   1424.97437     606.2109     534.7714
   1424.95911     607.4237     535.7217   1424.95911     607.4237     535.7217
   1424.94385     607.9944     536.6725   1424.94385     607.9944     536.6725
   1424.92859     608.5856     538.1285   1424.92859     608.5856     538.1285
   1424.91333     608.9904     539.9982   1424.91333     608.9904     539.9982
   1424.89807     609.5494     540.1472   1424.89807     609.5494     540.1472
   1424.88281     608.5917     540.7319   1424.88281     608.5917     540.7319
   1424.86755     609.4391     541.0593   1424.86755     609.4391     541.0593
   1424.85229     609.4526     543.3351   1424.85229     609.4526     543.3351
   1424.83704     609.4659     543.7147   1424.83704     609.4659     543.7147
   1424.82178     610.6279     545.4151   1424.82178     610.6279     545.4151
   1424.80652     610.1615     546.7042   1424.80652     610.1615     546.7042
   1424.79126     611.0137     547.7453   1424.79126     611.0137     547.7453
   1424.77600     610.8860     548.3156   1424.77600     610.8860     548.3156
   1424.76074     611.9197     548.4745   1424.76074     611.9197     548.4745
   1424.74548     611.4711     548.7535   1424.74548     611.4711     548.7535
   1424.73022     613.0059     549.8813   1424.73022     613.0059     549.8813
   1424.71497     611.5210     550.6218   1424.71497     611.5210     550.6218
   1424.69971     612.3691     552.1819   1424.69971     612.3691     552.1819
   1424.68445     612.2407     552.2394   1424.68445     612.2407     552.2394
   1424.66919     612.9302     553.7397   1424.66919     612.9302     553.7397
   1424.65393     612.6057     554.8490   1424.65393     612.6057     554.8490
   1424.63867     613.2818     555.2181   1424.63867     613.2818     555.2181
   1424.62341     612.6130     555.7819   1424.62341     612.6130     555.7819
   1424.60815     613.3326     556.8402   1424.60815     613.3326     556.8402
   1424.59290     613.2335     557.9564   1424.59290     613.2335     557.9564
   1424.57764     613.8696     558.0068   1424.57764     613.8696     558.0068
   1424.56238     612.2992     560.2557   1424.56238     612.2992     560.2557
   1424.54712     613.2944     560.2838   1424.54712     613.2944     560.2838
   1424.53186     613.2865     560.6049   1424.53186     613.2865     560.6049
   1424.51660     613.8490     561.8492   1424.51660     613.8490     561.8492
   1424.50134     614.5164     561.8120   1424.50134     614.5164     561.8120
   1424.48608     614.1239     563.4200   1424.48608     614.1239     563.4200
   1424.47083     613.0290     563.7444   1424.47083     613.0290     563.7444
   1424.45557     613.4169     564.2155   1424.45557     613.4169     564.2155
   1424.44031     614.1267     564.5665   1424.44031     614.1267     564.5665
   1424.42505     612.6967     565.3992   1424.42505     612.6967     565.3992
   1424.40979     613.8985     565.6142   1424.40979     613.8985     565.6142
   1424.39453     612.6718     566.6611   1424.39453     612.6718     566.6611
   1424.37927     614.6375     567.5070   1424.37927     614.6375     567.5070
   1424.36401     613.8657     567.3725   1424.36401     613.8657     567.3725
   1424.34875     613.8643     568.8893   1424.34875     613.8643     568.8893
   1424.33350     614.1171     569.4005   1424.33350     614.1171     569.4005
   1424.31824     614.7191     570.4135   1424.31824     614.7191     570.4135
   1424.30298     613.0689     570.1298   1424.30298     613.0689     570.1298
   1424.28772     613.6662     570.4725   1424.28772     613.6662     570.4725
   1424.27246     613.5707     571.7222   1424.27246     613.5707     571.7222
   1424.25720     614.5902     571.1182   1424.25720     614.5902     571.1182
   1424.24194     613.9225     572.8427   1424.24194     613.9225     572.8427
   1424.22668     613.0032     573.1191   1424.22668     613.0032     573.1191
   1424.21143     613.0132     573.6597   1424.21143     613.0132     573.6597
   1424.19617     614.5616     573.1709   1424.19617     614.5616     573.1709
   1424.18091     612.7182     574.0417   1424.18091     612.7182     574.0417
   1424.16565     613.7193     574.2170   1424.16565     613.7193     574.2170
