#     FILENAME=!Skynet_57528_lach-cc-217_20627_21042.cyb.fits
#     BASENAME=Skynet_57528_lach-cc-217_20627_21042
#     SRC_NAME=lach-cc-217
#     OBSERVER=ccmadison16_9505
#     DATE_OBS=2016-05-20T20:00:50.250
#        OBSID=20627
#      SCANNUM=21042
#          MJD=57528.8350
#          UTC=72139
#     SCANTYPE=track
#     DATAMODE=HIRES
#     TUNEFREQ=1420.0000
# Actual_FREQ1=1420.0000
# Actual_FREQ2=1420.0000
#    LO1Tuning=6870.000
#     RFFILTER=1355_1435
#        OBSBW=-15.6250
#        NCHAN=1024 
#        FOCUS=37.0709
#           RA=06:58:52.71
#          DEC=-03:37:10.07
#      RA(hrs)=6.981300
#     DEC(deg)=-3.619500
#    AZIM(deg)=171.105
#    ELEV(deg)=47.449
#     IFattens=10.00, 9.00
#      WARNING=None
#    TCAL_XL1=7.9635
#    TCAL_YR1=9.1340
#    TCAL_XL2=7.9635
#    TCAL_YR2=9.1340
#     TRX_XL1=11.7060
#     TRX_YR1=11.7060
#     TRX_XL2=11.7060
#     TRX_YR2=11.7060
#        TAVE=1.0000
#Freq1(MHz)          XL1          YR1  Freq2(MHz)          XL2          YR2 

   1427.81250     354.1077     260.7261   1427.81250     354.1077     260.7261
   1427.79724     354.4812     260.9905   1427.79724     354.4812     260.9905
   1427.78198     355.0887     261.4620   1427.78198     355.0887     261.4620
   1427.76672     355.6937     261.9108   1427.76672     355.6937     261.9108
   1427.75146     356.3358     262.5441   1427.75146     356.3358     262.5441
   1427.73621     357.2351     263.0493   1427.73621     357.2351     263.0493
   1427.72095     358.6970     264.0748   1427.72095     358.6970     264.0748
   1427.70569     359.0399     264.7198   1427.70569     359.0399     264.7198
   1427.69043     360.7115     265.1185   1427.69043     360.7115     265.1185
   1427.67517     361.2190     265.8262   1427.67517     361.2190     265.8262
   1427.65991     362.6394     266.8579   1427.65991     362.6394     266.8579
   1427.64465     363.2976     267.6872   1427.64465     363.2976     267.6872
   1427.62939     363.9203     268.7500   1427.62939     363.9203     268.7500
   1427.61414     366.2935     269.4880   1427.61414     366.2935     269.4880
   1427.59888     366.5250     270.4311   1427.59888     366.5250     270.4311
   1427.58362     368.5288     271.5559   1427.58362     368.5288     271.5559
   1427.56836     369.7564     272.2005   1427.56836     369.7564     272.2005
   1427.55310     371.2441     273.6825   1427.55310     371.2441     273.6825
   1427.53784     372.7742     274.9961   1427.53784     372.7742     274.9961
   1427.52258     374.0623     275.8099   1427.52258     374.0623     275.8099
   1427.50732     375.6849     277.1892   1427.50732     375.6849     277.1892
   1427.49207     377.5019     278.5771   1427.49207     377.5019     278.5771
   1427.47681     378.4054     279.8176   1427.47681     378.4054     279.8176
   1427.46155     380.5068     280.8998   1427.46155     380.5068     280.8998
   1427.44629     382.1732     282.0817   1427.44629     382.1732     282.0817
   1427.43103     383.8186     283.7350   1427.43103     383.8186     283.7350
   1427.41577     385.5464     285.2477   1427.41577     385.5464     285.2477
   1427.40051     387.3773     286.4497   1427.40051     387.3773     286.4497
   1427.38525     389.5544     287.8356   1427.38525     389.5544     287.8356
   1427.37000     391.2315     289.5954   1427.37000     391.2315     289.5954
   1427.35474     393.3544     290.8181   1427.35474     393.3544     290.8181
   1427.33948     394.9366     292.3865   1427.33948     394.9366     292.3865
   1427.32422     397.0885     294.4586   1427.32422     397.0885     294.4586
   1427.30896     399.0438     295.7454   1427.30896     399.0438     295.7454
   1427.29370     400.6939     297.4303   1427.29370     400.6939     297.4303
   1427.27844     402.4273     299.0136   1427.27844     402.4273     299.0136
   1427.26318     405.2264     301.1208   1427.26318     405.2264     301.1208
   1427.24792     408.5655     301.9726   1427.24792     408.5655     301.9726
   1427.23267     409.8667     304.3255   1427.23267     409.8667     304.3255
   1427.21741     411.8584     306.1408   1427.21741     411.8584     306.1408
   1427.20215     414.3888     307.7928   1427.20215     414.3888     307.7928
   1427.18689     416.4803     309.9041   1427.18689     416.4803     309.9041
   1427.17163     419.4770     311.9405   1427.17163     419.4770     311.9405
   1427.15637     421.4847     314.0070   1427.15637     421.4847     314.0070
   1427.14111     423.7871     315.8097   1427.14111     423.7871     315.8097
   1427.12585     426.6600     317.5131   1427.12585     426.6600     317.5131
   1427.11060     428.5396     319.6451   1427.11060     428.5396     319.6451
   1427.09534     430.9047     322.3485   1427.09534     430.9047     322.3485
   1427.08008     432.9213     323.7027   1427.08008     432.9213     323.7027
   1427.06482     436.0505     326.2997   1427.06482     436.0505     326.2997
   1427.04956     438.1781     328.1109   1427.04956     438.1781     328.1109
   1427.03430     441.3286     330.1299   1427.03430     441.3286     330.1299
   1427.01904     443.4106     332.5888   1427.01904     443.4106     332.5888
   1427.00378     445.8208     335.0206   1427.00378     445.8208     335.0206
   1426.98853     448.4741     336.3959   1426.98853     448.4741     336.3959
   1426.97327     451.1574     339.0854   1426.97327     451.1574     339.0854
   1426.95801     453.0776     341.1272   1426.95801     453.0776     341.1272
   1426.94275     456.5268     343.6540   1426.94275     456.5268     343.6540
   1426.92749     459.4741     345.6359   1426.92749     459.4741     345.6359
   1426.91223     461.0595     347.1909   1426.91223     461.0595     347.1909
   1426.89697     464.2321     350.6961   1426.89697     464.2321     350.6961
   1426.88171     466.9413     352.5739   1426.88171     466.9413     352.5739
   1426.86646     469.3542     355.2375   1426.86646     469.3542     355.2375
   1426.85120     472.4116     357.4361   1426.85120     472.4116     357.4361
   1426.83594     474.9790     359.9934   1426.83594     474.9790     359.9934
   1426.82068     477.6060     363.1901   1426.82068     477.6060     363.1901
   1426.80542     480.0978     363.9955   1426.80542     480.0978     363.9955
   1426.79016     482.8950     367.1320   1426.79016     482.8950     367.1320
   1426.77490     486.5242     369.5947   1426.77490     486.5242     369.5947
   1426.75964     489.0259     372.0074   1426.75964     489.0259     372.0074
   1426.74438     490.5532     374.0612   1426.74438     490.5532     374.0612
   1426.72913     493.9612     376.3931   1426.72913     493.9612     376.3931
   1426.71387     496.4964     379.2552   1426.71387     496.4964     379.2552
   1426.69861     499.3401     381.3338   1426.69861     499.3401     381.3338
   1426.68335     502.0840     384.0211   1426.68335     502.0840     384.0211
   1426.66809     504.5542     387.1546   1426.66809     504.5542     387.1546
   1426.65283     507.0614     389.3440   1426.65283     507.0614     389.3440
   1426.63757     510.4212     391.1584   1426.63757     510.4212     391.1584
   1426.62231     513.8025     396.2931   1426.62231     513.8025     396.2931
   1426.60706     515.6554     396.8976   1426.60706     515.6554     396.8976
   1426.59180     518.6608     399.1948   1426.59180     518.6608     399.1948
   1426.57654     520.7441     401.9050   1426.57654     520.7441     401.9050
   1426.56128     523.2554     404.9377   1426.56128     523.2554     404.9377
   1426.54602     525.6126     407.1717   1426.54602     525.6126     407.1717
   1426.53076     528.4706     409.8425   1426.53076     528.4706     409.8425
   1426.51550     530.9852     412.1664   1426.51550     530.9852     412.1664
   1426.50024     533.7835     415.4732   1426.50024     533.7835     415.4732
   1426.48499     536.4615     417.1175   1426.48499     536.4615     417.1175
   1426.46973     539.2310     419.6094   1426.46973     539.2310     419.6094
   1426.45447     541.6454     422.2678   1426.45447     541.6454     422.2678
   1426.43921     544.6484     425.0303   1426.43921     544.6484     425.0303
   1426.42395     546.8298     426.6962   1426.42395     546.8298     426.6962
   1426.40869     549.9365     429.5560   1426.40869     549.9365     429.5560
   1426.39343     552.4894     432.9162   1426.39343     552.4894     432.9162
   1426.37817     555.6433     435.3906   1426.37817     555.6433     435.3906
   1426.36292     557.0826     437.0975   1426.36292     557.0826     437.0975
   1426.34766     560.5284     440.6234   1426.34766     560.5284     440.6234
   1426.33240     563.1115     442.5226   1426.33240     563.1115     442.5226
   1426.31714     564.3521     446.0040   1426.31714     564.3521     446.0040
   1426.30188     567.5261     448.8345   1426.30188     567.5261     448.8345
   1426.28662     570.2832     449.8521   1426.28662     570.2832     449.8521
   1426.27136     573.5100     452.9308   1426.27136     573.5100     452.9308
   1426.25610     574.9314     455.8714   1426.25610     574.9314     455.8714
   1426.24084     578.1039     457.7631   1426.24084     578.1039     457.7631
   1426.22559     580.0615     460.6624   1426.22559     580.0615     460.6624
   1426.21033     583.5219     462.7945   1426.21033     583.5219     462.7945
   1426.19507     584.1653     465.1229   1426.19507     584.1653     465.1229
   1426.17981     586.9800     467.9323   1426.17981     586.9800     467.9323
   1426.16455     589.3239     470.2163   1426.16455     589.3239     470.2163
   1426.14929     591.8148     473.8855   1426.14929     591.8148     473.8855
   1426.13403     594.0519     475.7430   1426.13403     594.0519     475.7430
   1426.11877     596.4283     477.4171   1426.11877     596.4283     477.4171
   1426.10352     597.8090     480.2000   1426.10352     597.8090     480.2000
   1426.08826     600.7783     482.8438   1426.08826     600.7783     482.8438
   1426.07300     603.3039     485.0363   1426.07300     603.3039     485.0363
   1426.05774     605.5792     487.4868   1426.05774     605.5792     487.4868
   1426.04248     606.7294     490.2516   1426.04248     606.7294     490.2516
   1426.02722     609.3665     492.4698   1426.02722     609.3665     492.4698
   1426.01196     611.0475     494.8149   1426.01196     611.0475     494.8149
   1425.99670     613.9672     497.0879   1425.99670     613.9672     497.0879
   1425.98145     615.7462     499.7553   1425.98145     615.7462     499.7553
   1425.96619     616.7854     501.9404   1425.96619     616.7854     501.9404
   1425.95093     619.4852     503.7103   1425.95093     619.4852     503.7103
   1425.93567     621.2252     506.5899   1425.93567     621.2252     506.5899
   1425.92041     623.4221     509.2151   1425.92041     623.4221     509.2151
   1425.90515     625.0454     510.7696   1425.90515     625.0454     510.7696
   1425.88989     627.4299     513.7213   1425.88989     627.4299     513.7213
   1425.87463     629.5862     515.1713   1425.87463     629.5862     515.1713
   1425.85938     632.2529     517.3013   1425.85938     632.2529     517.3013
   1425.84412     632.6156     520.0390   1425.84412     632.6156     520.0390
   1425.82886     633.2712     522.5178   1425.82886     633.2712     522.5178
   1425.81360     636.3655     524.0432   1425.81360     636.3655     524.0432
   1425.79834     638.1338     526.7411   1425.79834     638.1338     526.7411
   1425.78308     639.3377     528.5388   1425.78308     639.3377     528.5388
   1425.76782     640.8182     531.3358   1425.76782     640.8182     531.3358
   1425.75256     642.2524     533.2961   1425.75256     642.2524     533.2961
   1425.73730     644.5196     535.1166   1425.73730     644.5196     535.1166
   1425.72205     645.9716     537.0427   1425.72205     645.9716     537.0427
   1425.70679     647.1850     539.4932   1425.70679     647.1850     539.4932
   1425.69153     648.5715     541.4575   1425.69153     648.5715     541.4575
   1425.67627     650.5561     544.2934   1425.67627     650.5561     544.2934
   1425.66101     651.4171     545.9512   1425.66101     651.4171     545.9512
   1425.64575     653.9831     546.6371   1425.64575     653.9831     546.6371
   1425.63049     655.3330     548.9436   1425.63049     655.3330     548.9436
   1425.61523     656.2994     551.1608   1425.61523     656.2994     551.1608
   1425.59998     657.5703     553.7628   1425.59998     657.5703     553.7628
   1425.58472     659.2185     555.9269   1425.58472     659.2185     555.9269
   1425.56946     659.8431     557.9835   1425.56946     659.8431     557.9835
   1425.55420     661.7230     559.1848   1425.55420     661.7230     559.1848
   1425.53894     662.0977     560.9246   1425.53894     662.0977     560.9246
   1425.52368     663.4205     562.2701   1425.52368     663.4205     562.2701
   1425.50842     664.9590     565.3361   1425.50842     664.9590     565.3361
   1425.49316     665.9066     566.7185   1425.49316     665.9066     566.7185
   1425.47791     667.0291     568.7505   1425.47791     667.0291     568.7505
   1425.46265     668.7988     570.0641   1425.46265     668.7988     570.0641
   1425.44739     668.9681     571.4755   1425.44739     668.9681     571.4755
   1425.43213     669.9218     573.7062   1425.43213     669.9218     573.7062
   1425.41687     672.6913     577.6773   1425.41687     672.6913     577.6773
   1425.40161     672.8148     577.6927   1425.40161     672.8148     577.6927
   1425.38635     674.1949     578.9207   1425.38635     674.1949     578.9207
   1425.37109     673.7737     581.1741   1425.37109     673.7737     581.1741
   1425.35583     675.5403     581.9905   1425.35583     675.5403     581.9905
   1425.34058     677.7100     584.4329   1425.34058     677.7100     584.4329
   1425.32532     677.2350     585.8260   1425.32532     677.2350     585.8260
   1425.31006     678.5321     586.3422   1425.31006     678.5321     586.3422
   1425.29480     680.0189     588.4454   1425.29480     680.0189     588.4454
   1425.27954     679.9425     590.0627   1425.27954     679.9425     590.0627
   1425.26428     680.6096     592.0441   1425.26428     680.6096     592.0441
   1425.24902     682.1713     593.1512   1425.24902     682.1713     593.1512
   1425.23376     683.0251     595.0695   1425.23376     683.0251     595.0695
   1425.21851     682.8464     597.2325   1425.21851     682.8464     597.2325
   1425.20325     683.9581     598.1505   1425.20325     683.9581     598.1505
   1425.18799     684.3819     599.0954   1425.18799     684.3819     599.0954
   1425.17273     685.2969     601.1732   1425.17273     685.2969     601.1732
   1425.15747     685.4906     602.2711   1425.15747     685.4906     602.2711
   1425.14221     686.5704     603.6309   1425.14221     686.5704     603.6309
   1425.12695     686.6343     604.4173   1425.12695     686.6343     604.4173
   1425.11169     686.9468     606.1562   1425.11169     686.9468     606.1562
   1425.09644     688.3486     607.0858   1425.09644     688.3486     607.0858
   1425.08118     687.5377     608.3099   1425.08118     687.5377     608.3099
   1425.06592     689.0283     611.1320   1425.06592     689.0283     611.1320
   1425.05066     690.0165     611.3907   1425.05066     690.0165     611.3907
   1425.03540     689.8828     612.1453   1425.03540     689.8828     612.1453
   1425.02014     690.7349     613.4312   1425.02014     690.7349     613.4312
   1425.00488     689.6603     615.6341   1425.00488     689.6603     615.6341
   1424.98962     693.0257     616.9326   1424.98962     693.0257     616.9326
   1424.97437     691.3339     616.2285   1424.97437     691.3339     616.2285
   1424.95911     693.0541     618.6786   1424.95911     693.0541     618.6786
   1424.94385     692.5372     620.0515   1424.94385     692.5372     620.0515
   1424.92859     692.0102     620.8766   1424.92859     692.0102     620.8766
   1424.91333     694.5609     620.2619   1424.91333     694.5609     620.2619
   1424.89807     692.9683     622.6631   1424.89807     692.9683     622.6631
   1424.88281     694.0815     623.8339   1424.88281     694.0815     623.8339
   1424.86755     693.1449     624.3181   1424.86755     693.1449     624.3181
   1424.85229     693.4189     624.8939   1424.85229     693.4189     624.8939
   1424.83704     694.7325     626.7498   1424.83704     694.7325     626.7498
   1424.82178     694.2395     627.9335   1424.82178     694.2395     627.9335
   1424.80652     695.2388     628.2490   1424.80652     695.2388     628.2490
   1424.79126     695.3548     628.9858   1424.79126     695.3548     628.9858
   1424.77600     694.6281     630.6372   1424.77600     694.6281     630.6372
   1424.76074     695.0142     631.9125   1424.76074     695.0142     631.9125
   1424.74548     695.9475     631.3165   1424.74548     695.9475     631.3165
   1424.73022     695.5663     631.7078   1424.73022     695.5663     631.7078
   1424.71497     697.0726     632.3982   1424.71497     697.0726     632.3982
   1424.69971     695.9741     633.4941   1424.69971     695.9741     633.4941
   1424.68445     696.3721     634.0955   1424.68445     696.3721     634.0955
   1424.66919     696.6730     635.3948   1424.66919     696.6730     635.3948
   1424.65393     695.6252     635.7936   1424.65393     695.6252     635.7936
   1424.63867     696.4150     636.1392   1424.63867     696.4150     636.1392
   1424.62341     695.2682     637.5140   1424.62341     695.2682     637.5140
   1424.60815     696.7904     636.8615   1424.60815     696.7904     636.8615
   1424.59290     697.7346     639.2974   1424.59290     697.7346     639.2974
   1424.57764     696.6897     639.6768   1424.57764     696.6897     639.6768
   1424.56238     696.6674     640.2603   1424.56238     696.6674     640.2603
   1424.54712     696.7303     640.6019   1424.54712     696.7303     640.6019
   1424.53186     696.8495     640.8395   1424.53186     696.8495     640.8395
   1424.51660     697.0820     641.7203   1424.51660     697.0820     641.7203
   1424.50134     696.3345     641.8160   1424.50134     696.3345     641.8160
   1424.48608     696.0778     642.0100   1424.48608     696.0778     642.0100
   1424.47083     696.2159     643.0262   1424.47083     696.2159     643.0262
   1424.45557     696.0176     644.3926   1424.45557     696.0176     644.3926
   1424.44031     696.5173     643.7172   1424.44031     696.5173     643.7172
   1424.42505     695.0362     643.4168   1424.42505     695.0362     643.4168
   1424.40979     696.3396     644.4384   1424.40979     696.3396     644.4384
   1424.39453     695.7608     644.5643   1424.39453     695.7608     644.5643
   1424.37927     696.0051     645.1151   1424.37927     696.0051     645.1151
   1424.36401     695.9685     644.9909   1424.36401     695.9685     644.9909
   1424.34875     696.6620     645.4572   1424.34875     696.6620     645.4572
   1424.33350     695.5740     645.9304   1424.33350     695.5740     645.9304
   1424.31824     695.0914     646.6270   1424.31824     695.0914     646.6270
   1424.30298     695.9594     646.7817   1424.30298     695.9594     646.7817
   1424.28772     695.6386     646.8912   1424.28772     695.6386     646.8912
   1424.27246     694.8334     646.3089   1424.27246     694.8334     646.3089
   1424.25720     695.6155     647.3434   1424.25720     695.6155     647.3434
   1424.24194     693.7227     646.5804   1424.24194     693.7227     646.5804
   1424.22668     695.3995     646.6226   1424.22668     695.3995     646.6226
   1424.21143     694.9191     647.4327   1424.21143     694.9191     647.4327
   1424.19617     694.5436     648.1259   1424.19617     694.5436     648.1259
   1424.18091     695.1478     647.7325   1424.18091     695.1478     647.7325
   1424.16565     693.3485     647.6490   1424.16565     693.3485     647.6490
