#     FILENAME=!Skynet_57528_lach-cc-237_20653_21018.cyb.fits
#     BASENAME=Skynet_57528_lach-cc-237_20653_21018
#     SRC_NAME=lach-cc-237
#     OBSERVER=ccmadison16_9505
#     DATE_OBS=2016-05-20T19:11:51.750
#        OBSID=20653
#      SCANNUM=21018
#          MJD=57528.8010
#          UTC=69201
#     SCANTYPE=track
#     DATAMODE=HIRES
#     TUNEFREQ=1420.0000
# Actual_FREQ1=1420.0000
# Actual_FREQ2=1420.0000
#    LO1Tuning=6870.000
#     RFFILTER=1355_1435
#        OBSBW=-15.6250
#        NCHAN=1024 
#        FOCUS=37.0709
#           RA=07:37:28.98
#          DEC=-21:17:03.84
#      RA(hrs)=7.624700
#     DEC(deg)=-21.284400
#    AZIM(deg)=151.131
#    ELEV(deg)=24.735
#     IFattens=10.00, 9.00
#      WARNING=None
#    TCAL_XL1=7.9635
#    TCAL_YR1=9.1340
#    TCAL_XL2=7.9635
#    TCAL_YR2=9.1340
#     TRX_XL1=11.7060
#     TRX_YR1=11.7060
#     TRX_XL2=11.7060
#     TRX_YR2=11.7060
#        TAVE=1.0000
#Freq1(MHz)          XL1          YR1  Freq2(MHz)          XL2          YR2 

   1427.81250     371.4209     292.9395   1427.81250     371.4209     292.9395
   1427.79724     371.8961     293.6303   1427.79724     371.8961     293.6303
   1427.78198     372.8038     293.4384   1427.78198     372.8038     293.4384
   1427.76672     373.8144     294.4003   1427.76672     373.8144     294.4003
   1427.75146     374.3334     295.5630   1427.75146     374.3334     295.5630
   1427.73621     374.5899     295.9203   1427.73621     374.5899     295.9203
   1427.72095     376.3976     296.7483   1427.72095     376.3976     296.7483
   1427.70569     377.1006     297.5886   1427.70569     377.1006     297.5886
   1427.69043     379.0744     297.9229   1427.69043     379.0744     297.9229
   1427.67517     379.2962     299.3398   1427.67517     379.2962     299.3398
   1427.65991     380.6565     299.9017   1427.65991     380.6565     299.9017
   1427.64465     381.4722     300.6087   1427.64465     381.4722     300.6087
   1427.62939     383.9145     301.8531   1427.62939     383.9145     301.8531
   1427.61414     384.7772     303.1111   1427.61414     384.7772     303.1111
   1427.59888     385.3899     304.0952   1427.59888     385.3899     304.0952
   1427.58362     386.8445     304.8277   1427.58362     386.8445     304.8277
   1427.56836     388.5995     305.9909   1427.56836     388.5995     305.9909
   1427.55310     390.4263     306.7846   1427.55310     390.4263     306.7846
   1427.53784     391.6003     307.9736   1427.53784     391.6003     307.9736
   1427.52258     392.9652     309.6960   1427.52258     392.9652     309.6960
   1427.50732     394.5852     310.4679   1427.50732     394.5852     310.4679
   1427.49207     396.2857     311.9352   1427.49207     396.2857     311.9352
   1427.47681     397.8575     313.4728   1427.47681     397.8575     313.4728
   1427.46155     400.1890     314.9224   1427.46155     400.1890     314.9224
   1427.44629     401.5907     316.6825   1427.44629     401.5907     316.6825
   1427.43103     403.8319     318.0837   1427.43103     403.8319     318.0837
   1427.41577     405.5498     319.4930   1427.41577     405.5498     319.4930
   1427.40051     407.4259     320.9177   1427.40051     407.4259     320.9177
   1427.38525     409.6989     323.2790   1427.38525     409.6989     323.2790
   1427.37000     411.2893     324.2212   1427.37000     411.2893     324.2212
   1427.35474     413.2687     325.5973   1427.35474     413.2687     325.5973
   1427.33948     416.1813     327.4567   1427.33948     416.1813     327.4567
   1427.32422     418.4027     329.5547   1427.32422     418.4027     329.5547
   1427.30896     419.7789     330.5282   1427.30896     419.7789     330.5282
   1427.29370     422.1426     332.4074   1427.29370     422.1426     332.4074
   1427.27844     424.7761     334.3719   1427.27844     424.7761     334.3719
   1427.26318     426.7672     336.2024   1427.26318     426.7672     336.2024
   1427.24792     429.4415     338.5305   1427.24792     429.4415     338.5305
   1427.23267     431.6440     340.1913   1427.23267     431.6440     340.1913
   1427.21741     433.7506     342.1524   1427.21741     433.7506     342.1524
   1427.20215     435.9701     344.0249   1427.20215     435.9701     344.0249
   1427.18689     438.0098     346.2702   1427.18689     438.0098     346.2702
   1427.17163     441.2522     347.7742   1427.17163     441.2522     347.7742
   1427.15637     443.6978     349.7902   1427.15637     443.6978     349.7902
   1427.14111     446.1605     352.3090   1427.14111     446.1605     352.3090
   1427.12585     448.8618     354.4561   1427.12585     448.8618     354.4561
   1427.11060     451.1638     356.3238   1427.11060     451.1638     356.3238
   1427.09534     454.4337     358.5034   1427.09534     454.4337     358.5034
   1427.08008     456.9754     360.6158   1427.08008     456.9754     360.6158
   1427.06482     459.3803     362.2790   1427.06482     459.3803     362.2790
   1427.04956     462.1157     365.2481   1427.04956     462.1157     365.2481
   1427.03430     465.6841     367.3430   1427.03430     465.6841     367.3430
   1427.01904     467.8262     369.5680   1427.01904     467.8262     369.5680
   1427.00378     469.5837     371.9315   1427.00378     469.5837     371.9315
   1426.98853     472.8495     374.4834   1426.98853     472.8495     374.4834
   1426.97327     476.0707     377.2758   1426.97327     476.0707     377.2758
   1426.95801     478.1265     379.1213   1426.95801     478.1265     379.1213
   1426.94275     481.1201     381.2456   1426.94275     481.1201     381.2456
   1426.92749     484.5701     384.2801   1426.92749     484.5701     384.2801
   1426.91223     487.0436     386.1789   1426.91223     487.0436     386.1789
   1426.89697     489.2100     388.8795   1426.89697     489.2100     388.8795
   1426.88171     492.7622     390.9096   1426.88171     492.7622     390.9096
   1426.86646     495.5285     393.6831   1426.86646     495.5285     393.6831
   1426.85120     498.1798     395.5579   1426.85120     498.1798     395.5579
   1426.83594     501.9163     398.0429   1426.83594     501.9163     398.0429
   1426.82068     505.0581     400.0536   1426.82068     505.0581     400.0536
   1426.80542     507.8130     403.5430   1426.80542     507.8130     403.5430
   1426.79016     510.5422     405.5901   1426.79016     510.5422     405.5901
   1426.77490     513.4255     408.0439   1426.77490     513.4255     408.0439
   1426.75964     516.5354     410.5654   1426.75964     516.5354     410.5654
   1426.74438     518.4276     413.4913   1426.74438     518.4276     413.4913
   1426.72913     522.9247     416.3153   1426.72913     522.9247     416.3153
   1426.71387     524.8592     418.2146   1426.71387     524.8592     418.2146
   1426.69861     527.8632     420.8876   1426.69861     527.8632     420.8876
   1426.68335     531.4331     423.9179   1426.68335     531.4331     423.9179
   1426.66809     534.5627     426.0906   1426.66809     534.5627     426.0906
   1426.65283     536.9981     428.6549   1426.65283     536.9981     428.6549
   1426.63757     539.6177     430.7432   1426.63757     539.6177     430.7432
   1426.62231     547.4846     434.3076   1426.62231     547.4846     434.3076
   1426.60706     545.7398     436.7477   1426.60706     545.7398     436.7477
   1426.59180     549.0165     438.7824   1426.59180     549.0165     438.7824
   1426.57654     552.6694     441.4828   1426.57654     552.6694     441.4828
   1426.56128     555.4332     444.7458   1426.56128     555.4332     444.7458
   1426.54602     558.1196     447.1785   1426.54602     558.1196     447.1785
   1426.53076     560.7986     449.0276   1426.53076     560.7986     449.0276
   1426.51550     564.1073     451.6512   1426.51550     564.1073     451.6512
   1426.50024     566.9423     454.5485   1426.50024     566.9423     454.5485
   1426.48499     569.2980     457.0001   1426.48499     569.2980     457.0001
   1426.46973     572.6839     459.8340   1426.46973     572.6839     459.8340
   1426.45447     575.7524     461.5584   1426.45447     575.7524     461.5584
   1426.43921     578.8902     464.4799   1426.43921     578.8902     464.4799
   1426.42395     581.2443     466.8263   1426.42395     581.2443     466.8263
   1426.40869     584.3610     469.7655   1426.40869     584.3610     469.7655
   1426.39343     587.9429     471.7646   1426.39343     587.9429     471.7646
   1426.37817     590.2807     474.9023   1426.37817     590.2807     474.9023
   1426.36292     592.8542     477.6243   1426.36292     592.8542     477.6243
   1426.34766     595.3948     479.2359   1426.34766     595.3948     479.2359
   1426.33240     599.1414     482.7758   1426.33240     599.1414     482.7758
   1426.31714     601.2596     485.0239   1426.31714     601.2596     485.0239
   1426.30188     604.1099     487.6671   1426.30188     604.1099     487.6671
   1426.28662     606.5219     490.6480   1426.28662     606.5219     490.6480
   1426.27136     609.9749     491.8196   1426.27136     609.9749     491.8196
   1426.25610     612.7009     494.5581   1426.25610     612.7009     494.5581
   1426.24084     614.8995     496.9474   1426.24084     614.8995     496.9474
   1426.22559     618.1556     500.3530   1426.22559     618.1556     500.3530
   1426.21033     620.3865     502.2353   1426.21033     620.3865     502.2353
   1426.19507     622.8804     504.5941   1426.19507     622.8804     504.5941
   1426.17981     625.2129     506.8203   1426.17981     625.2129     506.8203
   1426.16455     628.0272     509.1086   1426.16455     628.0272     509.1086
   1426.14929     630.6370     511.5668   1426.14929     630.6370     511.5668
   1426.13403     634.4421     513.9571   1426.13403     634.4421     513.9571
   1426.11877     636.5151     516.4835   1426.11877     636.5151     516.4835
   1426.10352     638.2832     518.3505   1426.10352     638.2832     518.3505
   1426.08826     641.0324     520.2598   1426.08826     641.0324     520.2598
   1426.07300     642.9228     523.8885   1426.07300     642.9228     523.8885
   1426.05774     645.8539     525.3805   1426.05774     645.8539     525.3805
   1426.04248     648.6077     527.9721   1426.04248     648.6077     527.9721
   1426.02722     651.0168     530.8358   1426.02722     651.0168     530.8358
   1426.01196     653.2866     533.6342   1426.01196     653.2866     533.6342
   1425.99670     655.3235     534.8383   1425.99670     655.3235     534.8383
   1425.98145     657.7477     537.6527   1425.98145     657.7477     537.6527
   1425.96619     660.8591     539.6016   1425.96619     660.8591     539.6016
   1425.95093     662.0319     541.3541   1425.95093     662.0319     541.3541
   1425.93567     664.1741     543.6055   1425.93567     664.1741     543.6055
   1425.92041     666.7908     546.0115   1425.92041     666.7908     546.0115
   1425.90515     668.3370     548.5225   1425.90515     668.3370     548.5225
   1425.88989     670.4707     551.2159   1425.88989     670.4707     551.2159
   1425.87463     673.2372     551.7927   1425.87463     673.2372     551.7927
   1425.85938     675.2476     555.0390   1425.85938     675.2476     555.0390
   1425.84412     677.7817     556.5052   1425.84412     677.7817     556.5052
   1425.82886     678.7609     558.6298   1425.82886     678.7609     558.6298
   1425.81360     681.5708     561.1848   1425.81360     681.5708     561.1848
   1425.79834     685.9969     563.7716   1425.79834     685.9969     563.7716
   1425.78308     685.0997     564.1772   1425.78308     685.0997     564.1772
   1425.76782     686.9704     566.3477   1425.76782     686.9704     566.3477
   1425.75256     688.5956     568.5547   1425.75256     688.5956     568.5547
   1425.73730     691.9630     570.9286   1425.73730     691.9630     570.9286
   1425.72205     691.8100     573.3078   1425.72205     691.8100     573.3078
   1425.70679     694.8453     574.6027   1425.70679     694.8453     574.6027
   1425.69153     696.4372     576.6934   1425.69153     696.4372     576.6934
   1425.67627     697.6145     578.6414   1425.67627     697.6145     578.6414
   1425.66101     700.0844     580.1935   1425.66101     700.0844     580.1935
   1425.64575     700.1884     582.0602   1425.64575     700.1884     582.0602
   1425.63049     702.6976     582.6427   1425.63049     702.6976     582.6427
   1425.61523     704.9210     585.6751   1425.61523     704.9210     585.6751
   1425.59998     705.7564     588.5066   1425.59998     705.7564     588.5066
   1425.58472     707.6760     590.0993   1425.58472     707.6760     590.0993
   1425.56946     710.2953     591.8693   1425.56946     710.2953     591.8693
   1425.55420     709.3934     593.4389   1425.55420     709.3934     593.4389
   1425.53894     711.5423     594.4254   1425.53894     711.5423     594.4254
   1425.52368     712.4661     596.3647   1425.52368     712.4661     596.3647
   1425.50842     714.3695     598.4273   1425.50842     714.3695     598.4273
   1425.49316     715.0356     600.3741   1425.49316     715.0356     600.3741
   1425.47791     717.0460     602.1785   1425.47791     717.0460     602.1785
   1425.46265     719.4656     603.3087   1425.46265     719.4656     603.3087
   1425.44739     720.8203     605.7804   1425.44739     720.8203     605.7804
   1425.43213     721.5620     606.2647   1425.43213     721.5620     606.2647
   1425.41687     723.1750     608.2822   1425.41687     723.1750     608.2822
   1425.40161     724.5937     610.8081   1425.40161     724.5937     610.8081
   1425.38635     725.5588     613.2392   1425.38635     725.5588     613.2392
   1425.37109     726.6284     613.9935   1425.37109     726.6284     613.9935
   1425.35583     727.5896     613.6923   1425.35583     727.5896     613.6923
   1425.34058     727.9039     616.9415   1425.34058     727.9039     616.9415
   1425.32532     728.4677     618.0235   1425.32532     728.4677     618.0235
   1425.31006     730.1096     618.9792   1425.31006     730.1096     618.9792
   1425.29480     732.6178     621.7382   1425.29480     732.6178     621.7382
   1425.27954     733.4787     623.0414   1425.27954     733.4787     623.0414
   1425.26428     734.0396     624.7128   1425.26428     734.0396     624.7128
   1425.24902     734.4675     625.8013   1425.24902     734.4675     625.8013
   1425.23376     734.9804     627.8168   1425.23376     734.9804     627.8168
   1425.21851     736.1362     627.7695   1425.21851     736.1362     627.7695
   1425.20325     737.0154     630.0657   1425.20325     737.0154     630.0657
   1425.18799     737.8344     630.7990   1425.18799     737.8344     630.7990
   1425.17273     738.3841     632.6385   1425.17273     738.3841     632.6385
   1425.15747     739.1050     634.1096   1425.15747     739.1050     634.1096
   1425.14221     741.2601     635.4613   1425.14221     741.2601     635.4613
   1425.12695     741.6838     637.4860   1425.12695     741.6838     637.4860
   1425.11169     741.8931     638.6511   1425.11169     741.8931     638.6511
   1425.09644     742.9795     638.4784   1425.09644     742.9795     638.4784
   1425.08118     741.2453     640.7614   1425.08118     741.2453     640.7614
   1425.06592     743.8684     642.2264   1425.06592     743.8684     642.2264
   1425.05066     743.6543     643.8998   1425.05066     743.6543     643.8998
   1425.03540     745.0972     643.6729   1425.03540     745.0972     643.6729
   1425.02014     745.0767     644.9972   1425.02014     745.0767     644.9972
   1425.00488     745.9628     647.3223   1425.00488     745.9628     647.3223
   1424.98962     746.3710     647.6837   1424.98962     746.3710     647.6837
   1424.97437     746.6067     649.6686   1424.97437     746.6067     649.6686
   1424.95911     746.3603     650.6677   1424.95911     746.3603     650.6677
   1424.94385     747.0109     651.6671   1424.94385     747.0109     651.6671
   1424.92859     748.4587     654.0504   1424.92859     748.4587     654.0504
   1424.91333     748.0468     653.6016   1424.91333     748.0468     653.6016
   1424.89807     749.5421     655.0231   1424.89807     749.5421     655.0231
   1424.88281     748.0507     656.3288   1424.88281     748.0507     656.3288
   1424.86755     749.0828     657.7051   1424.86755     749.0828     657.7051
   1424.85229     750.5335     658.6605   1424.85229     750.5335     658.6605
   1424.83704     750.7842     658.9957   1424.83704     750.7842     658.9957
   1424.82178     750.9338     660.1324   1424.82178     750.9338     660.1324
   1424.80652     750.8646     661.5474   1424.80652     750.8646     661.5474
   1424.79126     750.9869     663.1611   1424.79126     750.9869     663.1611
   1424.77600     752.8269     663.2348   1424.77600     752.8269     663.2348
   1424.76074     750.5102     665.2741   1424.76074     750.5102     665.2741
   1424.74548     752.8430     666.2457   1424.74548     752.8430     666.2457
   1424.73022     751.6374     666.7032   1424.73022     751.6374     666.7032
   1424.71497     752.3199     666.5714   1424.71497     752.3199     666.5714
   1424.69971     752.5361     668.9590   1424.69971     752.5361     668.9590
   1424.68445     751.9379     669.4501   1424.68445     751.9379     669.4501
   1424.66919     751.9221     670.2805   1424.66919     751.9221     670.2805
   1424.65393     752.6494     670.4506   1424.65393     752.6494     670.4506
   1424.63867     753.1586     671.5793   1424.63867     753.1586     671.5793
   1424.62341     753.0819     673.1871   1424.62341     753.0819     673.1871
   1424.60815     753.6186     673.5237   1424.60815     753.6186     673.5237
   1424.59290     752.7306     674.5648   1424.59290     752.7306     674.5648
   1424.57764     752.9428     673.7949   1424.57764     752.9428     673.7949
   1424.56238     753.5062     675.8508   1424.56238     753.5062     675.8508
   1424.54712     754.3112     676.9351   1424.54712     754.3112     676.9351
   1424.53186     753.7088     677.6891   1424.53186     753.7088     677.6891
   1424.51660     754.4745     679.5709   1424.51660     754.4745     679.5709
   1424.50134     753.8759     678.7000   1424.50134     753.8759     678.7000
   1424.48608     753.7991     679.8751   1424.48608     753.7991     679.8751
   1424.47083     754.5351     681.2054   1424.47083     754.5351     681.2054
   1424.45557     754.7941     681.7443   1424.45557     754.7941     681.7443
   1424.44031     754.0958     681.6483   1424.44031     754.0958     681.6483
   1424.42505     753.1784     682.6218   1424.42505     753.1784     682.6218
   1424.40979     752.8492     683.4024   1424.40979     752.8492     683.4024
   1424.39453     753.8800     682.3430   1424.39453     753.8800     682.3430
   1424.37927     753.7243     684.9796   1424.37927     753.7243     684.9796
   1424.36401     752.9357     684.5309   1424.36401     752.9357     684.5309
   1424.34875     753.3761     685.7772   1424.34875     753.3761     685.7772
   1424.33350     754.5319     685.4858   1424.33350     754.5319     685.4858
   1424.31824     752.1594     686.2871   1424.31824     752.1594     686.2871
   1424.30298     752.6058     687.0553   1424.30298     752.6058     687.0553
   1424.28772     752.3707     687.4847   1424.28772     752.3707     687.4847
   1424.27246     753.2596     687.5887   1424.27246     753.2596     687.5887
   1424.25720     752.6144     688.4749   1424.25720     752.6144     688.4749
   1424.24194     753.0655     689.4352   1424.24194     753.0655     689.4352
   1424.22668     752.0197     689.4449   1424.22668     752.0197     689.4449
   1424.21143     752.6392     690.4489   1424.21143     752.6392     690.4489
   1424.19617     752.5027     689.7808   1424.19617     752.5027     689.7808
   1424.18091     753.1625     690.8679   1424.18091     753.1625     690.8679
   1424.16565     751.8434     691.9189   1424.16565     751.8434     691.9189
