#     FILENAME=!Skynet_57528_lach-hhg-158_20518_20982.cyb.fits
#     BASENAME=Skynet_57528_lach-hhg-158_20518_20982
#     SRC_NAME=lach-hhg-158
#     OBSERVER=hhgmadison16_9500
#     DATE_OBS=2016-05-20T17:53:52.750
#        OBSID=20518
#      SCANNUM=20982
#          MJD=57528.7468
#          UTC=64521
#     SCANTYPE=track
#     DATAMODE=HIRES
#     TUNEFREQ=1420.0000
# Actual_FREQ1=1420.0000
# Actual_FREQ2=1420.0000
#    LO1Tuning=6870.000
#     RFFILTER=1355_1435
#        OBSBW=-15.6250
#        NCHAN=1024 
#        FOCUS=37.1148
#           RA=04:39:21.70
#          DEC=46:45:18.21
#      RA(hrs)=4.656000
#     DEC(deg)=46.755100
#    AZIM(deg)=12.051
#    ELEV(deg)=81.358
#     IFattens=10.00, 9.00
#      WARNING=None
#    TCAL_XL1=7.9635
#    TCAL_YR1=9.1340
#    TCAL_XL2=7.9635
#    TCAL_YR2=9.1340
#     TRX_XL1=11.7060
#     TRX_YR1=11.7060
#     TRX_XL2=11.7060
#     TRX_YR2=11.7060
#        TAVE=1.0000
#Freq1(MHz)          XL1          YR1  Freq2(MHz)          XL2          YR2 

   1427.81250     375.9367     340.0314   1427.81250     375.9367     340.0314
   1427.79724     377.1356     341.7962   1427.79724     377.1356     341.7962
   1427.78198     377.6524     342.5747   1427.78198     377.6524     342.5747
   1427.76672     378.5228     345.2564   1427.76672     378.5228     345.2564
   1427.75146     379.4365     347.3060   1427.75146     379.4365     347.3060
   1427.73621     380.0136     348.7371   1427.73621     380.0136     348.7371
   1427.72095     381.2996     350.5106   1427.72095     381.2996     350.5106
   1427.70569     382.1460     352.2159   1427.70569     382.1460     352.2159
   1427.69043     382.4363     354.0849   1427.69043     382.4363     354.0849
   1427.67517     384.5167     356.8510   1427.67517     384.5167     356.8510
   1427.65991     385.7632     358.2120   1427.65991     385.7632     358.2120
   1427.64465     385.7127     360.0660   1427.64465     385.7127     360.0660
   1427.62939     387.8439     361.8984   1427.62939     387.8439     361.8984
   1427.61414     389.1520     364.6369   1427.61414     389.1520     364.6369
   1427.59888     390.2141     366.8787   1427.59888     390.2141     366.8787
   1427.58362     392.4595     369.0453   1427.58362     392.4595     369.0453
   1427.56836     393.5478     370.4547   1427.56836     393.5478     370.4547
   1427.55310     394.3434     373.1815   1427.55310     394.3434     373.1815
   1427.53784     395.4875     375.7556   1427.53784     395.4875     375.7556
   1427.52258     397.0078     377.7822   1427.52258     397.0078     377.7822
   1427.50732     398.2741     379.5866   1427.50732     398.2741     379.5866
   1427.49207     400.8723     382.3532   1427.49207     400.8723     382.3532
   1427.47681     402.1264     385.1499   1427.47681     402.1264     385.1499
   1427.46155     403.9060     388.3633   1427.46155     403.9060     388.3633
   1427.44629     405.6927     390.2141   1427.44629     405.6927     390.2141
   1427.43103     406.8048     392.5792   1427.43103     406.8048     392.5792
   1427.41577     409.9053     394.2388   1427.41577     409.9053     394.2388
   1427.40051     411.5288     398.0706   1427.40051     411.5288     398.0706
   1427.38525     414.0772     400.0464   1427.38525     414.0772     400.0464
   1427.37000     415.4827     403.0889   1427.37000     415.4827     403.0889
   1427.35474     416.9787     405.4994   1427.35474     416.9787     405.4994
   1427.33948     419.2293     408.2396   1427.33948     419.2293     408.2396
   1427.32422     421.3430     410.1010   1427.32422     421.3430     410.1010
   1427.30896     423.2454     413.7331   1427.30896     423.2454     413.7331
   1427.29370     425.6089     415.9659   1427.29370     425.6089     415.9659
   1427.27844     427.9121     418.5367   1427.27844     427.9121     418.5367
   1427.26318     430.2559     421.2488   1427.26318     430.2559     421.2488
   1427.24792     432.7395     424.3561   1427.24792     432.7395     424.3561
   1427.23267     434.7251     427.1678   1427.23267     434.7251     427.1678
   1427.21741     437.2266     429.6876   1427.21741     437.2266     429.6876
   1427.20215     439.6843     432.1292   1427.20215     439.6843     432.1292
   1427.18689     443.0559     435.1448   1427.18689     443.0559     435.1448
   1427.17163     444.5345     437.6534   1427.17163     444.5345     437.6534
   1427.15637     447.8006     440.5984   1427.15637     447.8006     440.5984
   1427.14111     449.7879     443.9629   1427.14111     449.7879     443.9629
   1427.12585     452.3946     446.2758   1427.12585     452.3946     446.2758
   1427.11060     455.2160     448.9027   1427.11060     455.2160     448.9027
   1427.09534     456.9294     452.4425   1427.09534     456.9294     452.4425
   1427.08008     460.5929     455.3565   1427.08008     460.5929     455.3565
   1427.06482     462.7722     457.3034   1427.06482     462.7722     457.3034
   1427.04956     465.6609     460.3925   1427.04956     465.6609     460.3925
   1427.03430     468.3392     463.4383   1427.03430     468.3392     463.4383
   1427.01904     471.0271     465.6847   1427.01904     471.0271     465.6847
   1427.00378     473.9392     467.9166   1427.00378     473.9392     467.9166
   1426.98853     476.1130     470.9884   1426.98853     476.1130     470.9884
   1426.97327     478.8377     474.2769   1426.97327     478.8377     474.2769
   1426.95801     482.2036     476.5423   1426.95801     482.2036     476.5423
   1426.94275     485.1784     479.7401   1426.94275     485.1784     479.7401
   1426.92749     488.0374     482.2402   1426.92749     488.0374     482.2402
   1426.91223     491.3954     484.9700   1426.91223     491.3954     484.9700
   1426.89697     494.3942     488.0230   1426.89697     494.3942     488.0230
   1426.88171     496.7241     490.0921   1426.88171     496.7241     490.0921
   1426.86646     500.1429     492.8044   1426.86646     500.1429     492.8044
   1426.85120     502.8489     495.4647   1426.85120     502.8489     495.4647
   1426.83594     506.2406     498.9862   1426.83594     506.2406     498.9862
   1426.82068     508.7941     500.4828   1426.82068     508.7941     500.4828
   1426.80542     512.6625     503.6907   1426.80542     512.6625     503.6907
   1426.79016     514.9957     505.6306   1426.79016     514.9957     505.6306
   1426.77490     518.0001     509.3489   1426.77490     518.0001     509.3489
   1426.75964     521.3989     510.6026   1426.75964     521.3989     510.6026
   1426.74438     524.4147     514.8160   1426.74438     524.4147     514.8160
   1426.72913     526.3067     515.3881   1426.72913     526.3067     515.3881
   1426.71387     529.5560     518.0189   1426.71387     529.5560     518.0189
   1426.69861     533.0182     521.2192   1426.69861     533.0182     521.2192
   1426.68335     536.0766     523.6552   1426.68335     536.0766     523.6552
   1426.66809     539.6086     525.9371   1426.66809     539.6086     525.9371
   1426.65283     542.5985     528.6329   1426.65283     542.5985     528.6329
   1426.63757     545.3325     530.7921   1426.63757     545.3325     530.7921
   1426.62231     548.0679     534.3204   1426.62231     548.0679     534.3204
   1426.60706     551.0605     534.9929   1426.60706     551.0605     534.9929
   1426.59180     554.3765     537.7800   1426.59180     554.3765     537.7800
   1426.57654     556.9706     540.2613   1426.57654     556.9706     540.2613
   1426.56128     561.4380     542.4618   1426.56128     561.4380     542.4618
   1426.54602     564.4007     544.5569   1426.54602     564.4007     544.5569
   1426.53076     566.8422     546.8951   1426.53076     566.8422     546.8951
   1426.51550     570.1641     549.3304   1426.51550     570.1641     549.3304
   1426.50024     573.3120     551.2820   1426.50024     573.3120     551.2820
   1426.48499     576.4881     553.6262   1426.48499     576.4881     553.6262
   1426.46973     578.3176     555.0738   1426.46973     578.3176     555.0738
   1426.45447     580.9783     557.6021   1426.45447     580.9783     557.6021
   1426.43921     585.6373     559.4194   1426.43921     585.6373     559.4194
   1426.42395     588.0449     560.4990   1426.42395     588.0449     560.4990
   1426.40869     591.3270     563.4640   1426.40869     591.3270     563.4640
   1426.39343     593.9551     564.6328   1426.39343     593.9551     564.6328
   1426.37817     596.2084     567.2310   1426.37817     596.2084     567.2310
   1426.36292     600.0374     568.9927   1426.36292     600.0374     568.9927
   1426.34766     603.7540     570.5047   1426.34766     603.7540     570.5047
   1426.33240     605.5114     571.9219   1426.33240     605.5114     571.9219
   1426.31714     608.8769     574.3423   1426.31714     608.8769     574.3423
   1426.30188     611.9364     576.3978   1426.30188     611.9364     576.3978
   1426.28662     614.2644     578.2985   1426.28662     614.2644     578.2985
   1426.27136     617.3716     578.9625   1426.27136     617.3716     578.9625
   1426.25610     620.3393     581.2310   1426.25610     620.3393     581.2310
   1426.24084     622.9384     583.1603   1426.24084     622.9384     583.1603
   1426.22559     626.3881     584.5148   1426.22559     626.3881     584.5148
   1426.21033     629.2068     586.3527   1426.21033     629.2068     586.3527
   1426.19507     631.3593     587.6528   1426.19507     631.3593     587.6528
   1426.17981     634.5236     589.8795   1426.17981     634.5236     589.8795
   1426.16455     637.0660     591.2583   1426.16455     637.0660     591.2583
   1426.14929     640.2501     591.9689   1426.14929     640.2501     591.9689
   1426.13403     643.3037     592.6790   1426.13403     643.3037     592.6790
   1426.11877     644.8575     594.3392   1426.11877     644.8575     594.3392
   1426.10352     647.4706     596.9066   1426.10352     647.4706     596.9066
   1426.08826     650.8044     598.0715   1426.08826     650.8044     598.0715
   1426.07300     653.1266     599.8471   1426.07300     653.1266     599.8471
   1426.05774     655.4226     600.3052   1426.05774     655.4226     600.3052
   1426.04248     657.4178     601.6451   1426.04248     657.4178     601.6451
   1426.02722     661.0066     602.1353   1426.02722     661.0066     602.1353
   1426.01196     663.1257     605.1404   1426.01196     663.1257     605.1404
   1425.99670     665.9215     605.3874   1425.99670     665.9215     605.3874
   1425.98145     667.6399     606.3320   1425.98145     667.6399     606.3320
   1425.96619     669.8283     606.4324   1425.96619     669.8283     606.4324
   1425.95093     673.4775     608.2789   1425.95093     673.4775     608.2789
   1425.93567     675.4827     610.0615   1425.93567     675.4827     610.0615
   1425.92041     678.2838     610.6365   1425.92041     678.2838     610.6365
   1425.90515     680.9633     611.7040   1425.90515     680.9633     611.7040
   1425.88989     683.2208     612.2260   1425.88989     683.2208     612.2260
   1425.87463     683.9018     613.5423   1425.87463     683.9018     613.5423
   1425.85938     686.6632     614.1293   1425.85938     686.6632     614.1293
   1425.84412     690.1274     615.7455   1425.84412     690.1274     615.7455
   1425.82886     690.9529     616.4166   1425.82886     690.9529     616.4166
   1425.81360     692.7516     618.0040   1425.81360     692.7516     618.0040
   1425.79834     696.2113     618.6501   1425.79834     696.2113     618.6501
   1425.78308     698.1072     619.6114   1425.78308     698.1072     619.6114
   1425.76782     698.0228     619.9626   1425.76782     698.0228     619.9626
   1425.75256     701.5377     620.0801   1425.75256     701.5377     620.0801
   1425.73730     703.8163     620.7833   1425.73730     703.8163     620.7833
   1425.72205     706.5513     622.2061   1425.72205     706.5513     622.2061
   1425.70679     708.9634     622.7403   1425.70679     708.9634     622.7403
   1425.69153     708.8407     622.1063   1425.69153     708.8407     622.1063
   1425.67627     711.2480     624.4917   1425.67627     711.2480     624.4917
   1425.66101     713.6765     625.2313   1425.66101     713.6765     625.2313
   1425.64575     715.0428     625.5353   1425.64575     715.0428     625.5353
   1425.63049     716.7331     626.5247   1425.63049     716.7331     626.5247
   1425.61523     718.6733     626.5648   1425.61523     718.6733     626.5648
   1425.59998     720.6523     628.4686   1425.59998     720.6523     628.4686
   1425.58472     721.6755     628.4601   1425.58472     721.6755     628.4601
   1425.56946     723.8018     628.1557   1425.56946     723.8018     628.1557
   1425.55420     724.7736     629.1726   1425.55420     724.7736     629.1726
   1425.53894     727.2962     629.6129   1425.53894     727.2962     629.6129
   1425.52368     727.3037     629.9163   1425.52368     727.3037     629.9163
   1425.50842     729.2418     629.9745   1425.50842     729.2418     629.9745
   1425.49316     731.6493     629.5778   1425.49316     731.6493     629.5778
   1425.47791     732.4173     630.9036   1425.47791     732.4173     630.9036
   1425.46265     734.3773     630.6415   1425.46265     734.3773     630.6415
   1425.44739     735.5916     632.1475   1425.44739     735.5916     632.1475
   1425.43213     735.8983     631.8001   1425.43213     735.8983     631.8001
   1425.41687     737.3383     633.5194   1425.41687     737.3383     633.5194
   1425.40161     739.1530     633.0936   1425.40161     739.1530     633.0936
   1425.38635     740.5907     632.8215   1425.38635     740.5907     632.8215
   1425.37109     741.4922     632.9682   1425.37109     741.4922     632.9682
   1425.35583     743.4053     633.4863   1425.35583     743.4053     633.4863
   1425.34058     744.9336     633.5595   1425.34058     744.9336     633.5595
   1425.32532     745.1837     633.6459   1425.32532     745.1837     633.6459
   1425.31006     746.5067     634.1705   1425.31006     746.5067     634.1705
   1425.29480     747.7494     634.3432   1425.29480     747.7494     634.3432
   1425.27954     748.4903     635.2045   1425.27954     748.4903     635.2045
   1425.26428     749.4373     634.2199   1425.26428     749.4373     634.2199
   1425.24902     750.1511     634.1990   1425.24902     750.1511     634.1990
   1425.23376     751.4961     633.5047   1425.23376     751.4961     633.5047
   1425.21851     752.3765     634.9290   1425.21851     752.3765     634.9290
   1425.20325     752.3553     634.0999   1425.20325     752.3553     634.0999
   1425.18799     753.0082     634.6815   1425.18799     753.0082     634.6815
   1425.17273     755.6165     634.7553   1425.17273     755.6165     634.7553
   1425.15747     755.5261     634.8360   1425.15747     755.5261     634.8360
   1425.14221     757.1799     634.8524   1425.14221     757.1799     634.8524
   1425.12695     757.6252     634.5691   1425.12695     757.6252     634.5691
   1425.11169     758.8127     634.2311   1425.11169     758.8127     634.2311
   1425.09644     758.7883     633.9499   1425.09644     758.7883     633.9499
   1425.08118     759.7972     633.8625   1425.08118     759.7972     633.8625
   1425.06592     759.1013     635.6770   1425.06592     759.1013     635.6770
   1425.05066     760.2255     634.0334   1425.05066     760.2255     634.0334
   1425.03540     760.6954     633.8607   1425.03540     760.6954     633.8607
   1425.02014     762.8687     634.1898   1425.02014     762.8687     634.1898
   1425.00488     762.0674     634.4534   1425.00488     762.0674     634.4534
   1424.98962     763.2964     634.0054   1424.98962     763.2964     634.0054
   1424.97437     763.4018     634.1183   1424.97437     763.4018     634.1183
   1424.95911     764.2895     633.7765   1424.95911     764.2895     633.7765
   1424.94385     763.8397     634.2159   1424.94385     763.8397     634.2159
   1424.92859     765.7385     633.2278   1424.92859     765.7385     633.2278
   1424.91333     764.8432     633.9870   1424.91333     764.8432     633.9870
   1424.89807     765.2301     632.5933   1424.89807     765.2301     632.5933
   1424.88281     765.8255     633.0344   1424.88281     765.8255     633.0344
   1424.86755     765.3106     632.6024   1424.86755     765.3106     632.6024
   1424.85229     764.9095     632.0667   1424.85229     764.9095     632.0667
   1424.83704     765.9138     631.6369   1424.83704     765.9138     631.6369
   1424.82178     767.3493     631.1123   1424.82178     767.3493     631.1123
   1424.80652     767.2134     631.2197   1424.80652     767.2134     631.2197
   1424.79126     767.1488     630.6749   1424.79126     767.1488     630.6749
   1424.77600     766.3886     631.5980   1424.77600     766.3886     631.5980
   1424.76074     768.9398     631.0701   1424.76074     768.9398     631.0701
   1424.74548     768.1256     631.4371   1424.74548     768.1256     631.4371
   1424.73022     768.4103     630.1529   1424.73022     768.4103     630.1529
   1424.71497     767.2710     630.5745   1424.71497     767.2710     630.5745
   1424.69971     766.9858     629.4759   1424.69971     766.9858     629.4759
   1424.68445     768.0531     628.9900   1424.68445     768.0531     628.9900
   1424.66919     769.1771     629.1487   1424.66919     769.1771     629.1487
   1424.65393     768.4547     628.5035   1424.65393     768.4547     628.5035
   1424.63867     768.6990     627.8516   1424.63867     768.6990     627.8516
   1424.62341     767.6374     627.1099   1424.62341     767.6374     627.1099
   1424.60815     767.4909     627.5417   1424.60815     767.4909     627.5417
   1424.59290     768.4080     626.9870   1424.59290     768.4080     626.9870
   1424.57764     767.8960     626.2433   1424.57764     767.8960     626.2433
   1424.56238     767.8594     625.6454   1424.56238     767.8594     625.6454
   1424.54712     768.6374     626.0692   1424.54712     768.6374     626.0692
   1424.53186     768.4822     624.9805   1424.53186     768.4822     624.9805
   1424.51660     768.2562     625.2225   1424.51660     768.2562     625.2225
   1424.50134     768.4174     624.5515   1424.50134     768.4174     624.5515
   1424.48608     767.5609     624.1345   1424.48608     767.5609     624.1345
   1424.47083     765.9112     623.2913   1424.47083     765.9112     623.2913
   1424.45557     766.9149     624.0157   1424.45557     766.9149     624.0157
   1424.44031     766.1236     622.7747   1424.44031     766.1236     622.7747
   1424.42505     765.7609     623.4075   1424.42505     765.7609     623.4075
   1424.40979     766.4241     623.2305   1424.40979     766.4241     623.2305
   1424.39453     766.4186     622.7413   1424.39453     766.4186     622.7413
   1424.37927     765.3594     620.4627   1424.37927     765.3594     620.4627
   1424.36401     765.4600     620.7963   1424.36401     765.4600     620.7963
   1424.34875     764.8038     620.4298   1424.34875     764.8038     620.4298
   1424.33350     764.3004     620.6721   1424.33350     764.3004     620.6721
   1424.31824     765.1577     618.8240   1424.31824     765.1577     618.8240
   1424.30298     765.6823     619.1060   1424.30298     765.6823     619.1060
   1424.28772     763.2728     617.4766   1424.28772     763.2728     617.4766
   1424.27246     763.2893     618.0964   1424.27246     763.2893     618.0964
   1424.25720     764.4874     617.1244   1424.25720     764.4874     617.1244
   1424.24194     764.3429     616.4871   1424.24194     764.3429     616.4871
   1424.22668     763.6118     617.8038   1424.22668     763.6118     617.8038
   1424.21143     761.4926     616.1213   1424.21143     761.4926     616.1213
   1424.19617     762.8972     616.7595   1424.19617     762.8972     616.7595
   1424.18091     761.5884     614.9150   1424.18091     761.5884     614.9150
   1424.16565     763.1001     614.1295   1424.16565     763.1001     614.1295
