#     FILENAME=!Skynet_57528_lach-hhg-141_20465_20965.cyb.fits
#     BASENAME=Skynet_57528_lach-hhg-141_20465_20965
#     SRC_NAME=lach-hhg-141
#     OBSERVER=hhgmadison16_9500
#     DATE_OBS=2016-05-20T17:19:30.750
#        OBSID=20465
#      SCANNUM=20965
#          MJD=57528.7229
#          UTC=62460
#     SCANTYPE=track
#     DATAMODE=HIRES
#     TUNEFREQ=1420.0000
# Actual_FREQ1=1420.0000
# Actual_FREQ2=1420.0000
#    LO1Tuning=6870.000
#     RFFILTER=1355_1435
#        OBSBW=-15.6250
#        NCHAN=1024 
#        FOCUS=37.0709
#           RA=03:13:47.85
#          DEC=57:47:25.94
#      RA(hrs)=3.230000
#     DEC(deg)=57.790500
#    AZIM(deg)=344.075
#    ELEV(deg)=69.419
#     IFattens=11.00, 10.00
#      WARNING=None
#    TCAL_XL1=7.9635
#    TCAL_YR1=9.1340
#    TCAL_XL2=7.9635
#    TCAL_YR2=9.1340
#     TRX_XL1=11.7060
#     TRX_YR1=11.7060
#     TRX_XL2=11.7060
#     TRX_YR2=11.7060
#        TAVE=1.0000
#Freq1(MHz)          XL1          YR1  Freq2(MHz)          XL2          YR2 

   1427.81250     299.3118     252.1338   1427.81250     299.3118     252.1338
   1427.79724     299.6245     253.2418   1427.79724     299.6245     253.2418
   1427.78198     300.3393     254.0449   1427.78198     300.3393     254.0449
   1427.76672     300.6078     255.5042   1427.76672     300.6078     255.5042
   1427.75146     301.4433     256.3307   1427.75146     301.4433     256.3307
   1427.73621     302.1927     257.0453   1427.73621     302.1927     257.0453
   1427.72095     302.8408     258.2709   1427.72095     302.8408     258.2709
   1427.70569     303.9892     259.4901   1427.70569     303.9892     259.4901
   1427.69043     304.4168     260.0388   1427.69043     304.4168     260.0388
   1427.67517     305.4988     261.3564   1427.67517     305.4988     261.3564
   1427.65991     306.3493     262.8920   1427.65991     306.3493     262.8920
   1427.64465     307.0192     263.7531   1427.64465     307.0192     263.7531
   1427.62939     308.3985     265.2508   1427.62939     308.3985     265.2508
   1427.61414     309.6810     266.5714   1427.61414     309.6810     266.5714
   1427.59888     310.0730     267.6195   1427.59888     310.0730     267.6195
   1427.58362     311.2230     269.5926   1427.58362     311.2230     269.5926
   1427.56836     312.5101     270.5376   1427.56836     312.5101     270.5376
   1427.55310     313.9475     271.8235   1427.55310     313.9475     271.8235
   1427.53784     315.2093     273.5190   1427.53784     315.2093     273.5190
   1427.52258     316.7445     274.7971   1427.52258     316.7445     274.7971
   1427.50732     317.3770     276.3848   1427.50732     317.3770     276.3848
   1427.49207     319.2033     277.7362   1427.49207     319.2033     277.7362
   1427.47681     320.9274     279.3894   1427.47681     320.9274     279.3894
   1427.46155     321.2426     281.3036   1427.46155     321.2426     281.3036
   1427.44629     323.2045     282.8718   1427.44629     323.2045     282.8718
   1427.43103     324.4795     284.1457   1427.43103     324.4795     284.1457
   1427.41577     326.2635     285.7209   1427.41577     326.2635     285.7209
   1427.40051     327.7347     287.2635   1427.40051     327.7347     287.2635
   1427.38525     329.3334     288.9269   1427.38525     329.3334     288.9269
   1427.37000     331.2915     290.4908   1427.37000     331.2915     290.4908
   1427.35474     332.8194     292.5675   1427.35474     332.8194     292.5675
   1427.33948     334.7389     294.7678   1427.33948     334.7389     294.7678
   1427.32422     336.2186     295.9552   1427.32422     336.2186     295.9552
   1427.30896     337.8172     297.7816   1427.30896     337.8172     297.7816
   1427.29370     339.8459     299.4013   1427.29370     339.8459     299.4013
   1427.27844     341.5717     301.6273   1427.27844     341.5717     301.6273
   1427.26318     343.6746     303.1782   1427.26318     343.6746     303.1782
   1427.24792     345.8058     305.0621   1427.24792     345.8058     305.0621
   1427.23267     347.9844     307.6613   1427.23267     347.9844     307.6613
   1427.21741     349.7900     308.2926   1427.21741     349.7900     308.2926
   1427.20215     351.8818     310.5618   1427.20215     351.8818     310.5618
   1427.18689     353.5015     312.2932   1427.18689     353.5015     312.2932
   1427.17163     355.0779     314.9847   1427.17163     355.0779     314.9847
   1427.15637     357.9362     316.3783   1427.15637     357.9362     316.3783
   1427.14111     359.3439     318.7898   1427.14111     359.3439     318.7898
   1427.12585     362.6323     320.0951   1427.12585     362.6323     320.0951
   1427.11060     363.9555     322.4052   1427.11060     363.9555     322.4052
   1427.09534     366.3921     324.2618   1427.09534     366.3921     324.2618
   1427.08008     368.4179     326.2461   1427.08008     368.4179     326.2461
   1427.06482     370.5874     328.3575   1427.06482     370.5874     328.3575
   1427.04956     372.9754     330.5305   1427.04956     372.9754     330.5305
   1427.03430     374.4158     332.6597   1427.03430     374.4158     332.6597
   1427.01904     377.0335     334.3300   1427.01904     377.0335     334.3300
   1427.00378     379.8825     336.8170   1427.00378     379.8825     336.8170
   1426.98853     382.0814     338.6750   1426.98853     382.0814     338.6750
   1426.97327     385.2074     340.7566   1426.97327     385.2074     340.7566
   1426.95801     386.9996     342.7892   1426.95801     386.9996     342.7892
   1426.94275     388.9429     345.0148   1426.94275     388.9429     345.0148
   1426.92749     391.3205     346.6039   1426.92749     391.3205     346.6039
   1426.91223     394.6951     348.5027   1426.91223     394.6951     348.5027
   1426.89697     397.5742     351.1205   1426.89697     397.5742     351.1205
   1426.88171     398.7623     352.8452   1426.88171     398.7623     352.8452
   1426.86646     401.6577     355.1456   1426.86646     401.6577     355.1456
   1426.85120     403.8444     356.9262   1426.85120     403.8444     356.9262
   1426.83594     406.4449     359.2594   1426.83594     406.4449     359.2594
   1426.82068     409.1378     361.0857   1426.82068     409.1378     361.0857
   1426.80542     411.9883     363.2503   1426.80542     411.9883     363.2503
   1426.79016     413.3232     364.8553   1426.79016     413.3232     364.8553
   1426.77490     416.2563     366.6263   1426.77490     416.2563     366.6263
   1426.75964     418.8840     368.8242   1426.75964     418.8840     368.8242
   1426.74438     421.9413     370.9553   1426.74438     421.9413     370.9553
   1426.72913     423.7521     372.8600   1426.72913     423.7521     372.8600
   1426.71387     426.2679     375.4896   1426.71387     426.2679     375.4896
   1426.69861     429.9434     377.1555   1426.69861     429.9434     377.1555
   1426.68335     431.8077     379.1465   1426.68335     431.8077     379.1465
   1426.66809     434.3828     381.1599   1426.66809     434.3828     381.1599
   1426.65283     436.7434     383.0514   1426.65283     436.7434     383.0514
   1426.63757     439.8204     385.2109   1426.63757     439.8204     385.2109
   1426.62231     442.6816     390.1683   1426.62231     442.6816     390.1683
   1426.60706     444.9394     389.6594   1426.60706     444.9394     389.6594
   1426.59180     446.5369     390.4306   1426.59180     446.5369     390.4306
   1426.57654     449.2029     392.9707   1426.57654     449.2029     392.9707
   1426.56128     452.1125     394.1975   1426.56128     452.1125     394.1975
   1426.54602     454.6533     396.4807   1426.54602     454.6533     396.4807
   1426.53076     457.3295     398.8977   1426.53076     457.3295     398.8977
   1426.51550     460.0002     399.8274   1426.51550     460.0002     399.8274
   1426.50024     461.8182     401.9465   1426.50024     461.8182     401.9465
   1426.48499     465.3510     404.1408   1426.48499     465.3510     404.1408
   1426.46973     467.3595     406.3462   1426.46973     467.3595     406.3462
   1426.45447     470.0864     407.5165   1426.45447     470.0864     407.5165
   1426.43921     472.1923     409.8610   1426.43921     472.1923     409.8610
   1426.42395     474.7834     411.3678   1426.42395     474.7834     411.3678
   1426.40869     477.1752     412.7418   1426.40869     477.1752     412.7418
   1426.39343     480.2644     414.7601   1426.39343     480.2644     414.7601
   1426.37817     482.8573     416.7990   1426.37817     482.8573     416.7990
   1426.36292     485.4556     418.1224   1426.36292     485.4556     418.1224
   1426.34766     487.3648     418.9211   1426.34766     487.3648     418.9211
   1426.33240     490.4639     421.3965   1426.33240     490.4639     421.3965
   1426.31714     492.4521     423.0219   1426.31714     492.4521     423.0219
   1426.30188     494.8340     425.7178   1426.30188     494.8340     425.7178
   1426.28662     497.7675     427.0699   1426.28662     497.7675     427.0699
   1426.27136     499.5552     428.8741   1426.27136     499.5552     428.8741
   1426.25610     501.1984     430.6118   1426.25610     501.1984     430.6118
   1426.24084     504.8649     431.5162   1426.24084     504.8649     431.5162
   1426.22559     506.2532     433.1212   1426.22559     506.2532     433.1212
   1426.21033     508.9570     434.2345   1426.21033     508.9570     434.2345
   1426.19507     511.2242     436.1443   1426.19507     511.2242     436.1443
   1426.17981     513.4177     438.3577   1426.17981     513.4177     438.3577
   1426.16455     515.3859     439.7411   1426.16455     515.3859     439.7411
   1426.14929     518.2808     441.0581   1426.14929     518.2808     441.0581
   1426.13403     520.8381     442.9184   1426.13403     520.8381     442.9184
   1426.11877     522.9380     443.2276   1426.11877     522.9380     443.2276
   1426.10352     524.6466     444.8811   1426.10352     524.6466     444.8811
   1426.08826     527.4164     446.4974   1426.08826     527.4164     446.4974
   1426.07300     529.4157     448.2009   1426.07300     529.4157     448.2009
   1426.05774     532.2325     450.1216   1426.05774     532.2325     450.1216
   1426.04248     533.4656     450.8097   1426.04248     533.4656     450.8097
   1426.02722     535.4142     452.7710   1426.02722     535.4142     452.7710
   1426.01196     538.0618     453.5596   1426.01196     538.0618     453.5596
   1425.99670     541.0140     454.6346   1425.99670     541.0140     454.6346
   1425.98145     542.0488     456.1969   1425.98145     542.0488     456.1969
   1425.96619     543.5953     457.4715   1425.96619     543.5953     457.4715
   1425.95093     546.2902     459.0386   1425.95093     546.2902     459.0386
   1425.93567     548.6236     459.4941   1425.93567     548.6236     459.4941
   1425.92041     550.5544     460.8106   1425.92041     550.5544     460.8106
   1425.90515     551.5624     462.2235   1425.90515     551.5624     462.2235
   1425.88989     554.6148     463.6766   1425.88989     554.6148     463.6766
   1425.87463     556.3372     465.0980   1425.87463     556.3372     465.0980
   1425.85938     557.1140     466.4795   1425.85938     557.1140     466.4795
   1425.84412     559.8738     466.7227   1425.84412     559.8738     466.7227
   1425.82886     560.9935     467.8724   1425.82886     560.9935     467.8724
   1425.81360     562.0058     468.6418   1425.81360     562.0058     468.6418
   1425.79834     565.3517     469.9310   1425.79834     565.3517     469.9310
   1425.78308     566.4351     470.8736   1425.78308     566.4351     470.8736
   1425.76782     567.4527     472.0267   1425.76782     567.4527     472.0267
   1425.75256     569.9164     473.2759   1425.75256     569.9164     473.2759
   1425.73730     571.0797     473.9495   1425.73730     571.0797     473.9495
   1425.72205     572.6442     474.1252   1425.72205     572.6442     474.1252
   1425.70679     575.7551     476.4595   1425.70679     575.7551     476.4595
   1425.69153     576.4125     476.2522   1425.69153     576.4125     476.2522
   1425.67627     577.6464     478.4688   1425.67627     577.6464     478.4688
   1425.66101     579.4102     478.1887   1425.66101     579.4102     478.1887
   1425.64575     580.6592     478.8121   1425.64575     580.6592     478.8121
   1425.63049     582.2574     480.7900   1425.63049     582.2574     480.7900
   1425.61523     584.2436     481.8249   1425.61523     584.2436     481.8249
   1425.59998     585.3104     482.3173   1425.59998     585.3104     482.3173
   1425.58472     586.1195     482.9617   1425.58472     586.1195     482.9617
   1425.56946     587.7958     483.7396   1425.56946     587.7958     483.7396
   1425.55420     589.5575     484.6834   1425.55420     589.5575     484.6834
   1425.53894     590.8765     484.8426   1425.53894     590.8765     484.8426
   1425.52368     591.7680     486.3238   1425.52368     591.7680     486.3238
   1425.50842     593.5895     486.3946   1425.50842     593.5895     486.3946
   1425.49316     593.5949     487.5938   1425.49316     593.5949     487.5938
   1425.47791     596.1198     488.4987   1425.47791     596.1198     488.4987
   1425.46265     597.0200     489.2972   1425.46265     597.0200     489.2972
   1425.44739     597.0355     489.6283   1425.44739     597.0355     489.6283
   1425.43213     598.6989     490.7875   1425.43213     598.6989     490.7875
   1425.41687     601.7172     490.8401   1425.41687     601.7172     490.8401
   1425.40161     600.7353     491.6530   1425.40161     600.7353     491.6530
   1425.38635     602.7680     492.3072   1425.38635     602.7680     492.3072
   1425.37109     602.8359     493.1597   1425.37109     602.8359     493.1597
   1425.35583     604.2106     493.7604   1425.35583     604.2106     493.7604
   1425.34058     604.4636     494.4090   1425.34058     604.4636     494.4090
   1425.32532     605.5895     495.3997   1425.32532     605.5895     495.3997
   1425.31006     607.1449     495.2833   1425.31006     607.1449     495.2833
   1425.29480     607.3677     496.5500   1425.29480     607.3677     496.5500
   1425.27954     608.5031     496.4026   1425.27954     608.5031     496.4026
   1425.26428     608.7928     496.5093   1425.26428     608.7928     496.5093
   1425.24902     610.6396     497.5765   1425.24902     610.6396     497.5765
   1425.23376     611.0241     498.2215   1425.23376     611.0241     498.2215
   1425.21851     612.4333     498.3727   1425.21851     612.4333     498.3727
   1425.20325     611.9655     499.7100   1425.20325     611.9655     499.7100
   1425.18799     612.4186     498.9263   1425.18799     612.4186     498.9263
   1425.17273     613.9026     499.6670   1425.17273     613.9026     499.6670
   1425.15747     614.9128     499.6293   1425.15747     614.9128     499.6293
   1425.14221     615.1411     500.2807   1425.14221     615.1411     500.2807
   1425.12695     614.7168     500.8418   1425.12695     614.7168     500.8418
   1425.11169     615.8823     502.0165   1425.11169     615.8823     502.0165
   1425.09644     616.3561     501.6291   1425.09644     616.3561     501.6291
   1425.08118     617.2458     502.1385   1425.08118     617.2458     502.1385
   1425.06592     616.7235     503.0393   1425.06592     616.7235     503.0393
   1425.05066     617.4538     503.0587   1425.05066     617.4538     503.0587
   1425.03540     619.0682     502.4359   1425.03540     619.0682     502.4359
   1425.02014     618.9114     503.1217   1425.02014     618.9114     503.1217
   1425.00488     619.6063     503.1578   1425.00488     619.6063     503.1578
   1424.98962     620.0863     504.3008   1424.98962     620.0863     504.3008
   1424.97437     619.5664     504.0681   1424.97437     619.5664     504.0681
   1424.95911     620.9646     504.9526   1424.95911     620.9646     504.9526
   1424.94385     620.3622     505.0783   1424.94385     620.3622     505.0783
   1424.92859     620.8651     504.7031   1424.92859     620.8651     504.7031
   1424.91333     621.3884     505.1027   1424.91333     621.3884     505.1027
   1424.89807     621.0701     506.1276   1424.89807     621.0701     506.1276
   1424.88281     622.8203     505.7743   1424.88281     622.8203     505.7743
   1424.86755     622.9597     506.2262   1424.86755     622.9597     506.2262
   1424.85229     622.2648     505.8970   1424.85229     622.2648     505.8970
   1424.83704     623.0485     506.6489   1424.83704     623.0485     506.6489
   1424.82178     622.7574     506.5837   1424.82178     622.7574     506.5837
   1424.80652     623.0391     507.0323   1424.80652     623.0391     507.0323
   1424.79126     622.3016     506.7925   1424.79126     622.3016     506.7925
   1424.77600     623.3470     507.3863   1424.77600     623.3470     507.3863
   1424.76074     623.1329     507.0002   1424.76074     623.1329     507.0002
   1424.74548     623.1041     507.6874   1424.74548     623.1041     507.6874
   1424.73022     623.3340     507.3348   1424.73022     623.3340     507.3348
   1424.71497     623.2667     506.9304   1424.71497     623.2667     506.9304
   1424.69971     623.1910     507.6623   1424.69971     623.1910     507.6623
   1424.68445     623.4183     508.2597   1424.68445     623.4183     508.2597
   1424.66919     624.5960     508.3591   1424.66919     624.5960     508.3591
   1424.65393     622.5863     508.5623   1424.65393     622.5863     508.5623
   1424.63867     623.2001     508.4115   1424.63867     623.2001     508.4115
   1424.62341     623.2402     509.1363   1424.62341     623.2402     509.1363
   1424.60815     622.0208     508.2820   1424.60815     622.0208     508.2820
   1424.59290     623.8160     507.9869   1424.59290     623.8160     507.9869
   1424.57764     622.7316     508.5627   1424.57764     622.7316     508.5627
   1424.56238     623.7351     508.6135   1424.56238     623.7351     508.6135
   1424.54712     622.1668     509.4028   1424.54712     622.1668     509.4028
   1424.53186     622.9752     508.6190   1424.53186     622.9752     508.6190
   1424.51660     622.5891     509.0551   1424.51660     622.5891     509.0551
   1424.50134     621.2664     508.5844   1424.50134     621.2664     508.5844
   1424.48608     622.3541     509.1857   1424.48608     622.3541     509.1857
   1424.47083     622.6893     508.7487   1424.47083     622.6893     508.7487
   1424.45557     622.3056     509.0894   1424.45557     622.3056     509.0894
   1424.44031     622.0925     508.7549   1424.44031     622.0925     508.7549
   1424.42505     621.2631     508.7635   1424.42505     621.2631     508.7635
   1424.40979     621.8745     509.3616   1424.40979     621.8745     509.3616
   1424.39453     620.9225     508.2188   1424.39453     620.9225     508.2188
   1424.37927     620.3195     509.3561   1424.37927     620.3195     509.3561
   1424.36401     620.9327     509.0064   1424.36401     620.9327     509.0064
   1424.34875     619.8760     508.5167   1424.34875     619.8760     508.5167
   1424.33350     619.7168     508.2854   1424.33350     619.7168     508.2854
   1424.31824     619.5009     509.2898   1424.31824     619.5009     509.2898
   1424.30298     618.9737     508.4739   1424.30298     618.9737     508.4739
   1424.28772     618.9351     508.0891   1424.28772     618.9351     508.0891
   1424.27246     618.3433     508.3625   1424.27246     618.3433     508.3625
   1424.25720     618.6805     508.6919   1424.25720     618.6805     508.6919
   1424.24194     616.3862     508.1176   1424.24194     616.3862     508.1176
   1424.22668     617.9575     507.9586   1424.22668     617.9575     507.9586
   1424.21143     617.9774     507.8699   1424.21143     617.9774     507.8699
   1424.19617     615.5837     507.8015   1424.19617     615.5837     507.8015
   1424.18091     615.9009     507.1060   1424.18091     615.9009     507.1060
   1424.16565     615.9376     507.9569   1424.16565     615.9376     507.9569
