#     FILENAME=!Skynet_57528_lach-hhg-122_20410_20946.cyb.fits
#     BASENAME=Skynet_57528_lach-hhg-122_20410_20946
#     SRC_NAME=lach-hhg-122
#     OBSERVER=hhgmadison16_9500
#     DATE_OBS=2016-05-20T16:41:37.430
#        OBSID=20410
#      SCANNUM=20946
#          MJD=57528.6966
#          UTC=60186
#     SCANTYPE=track
#     DATAMODE=HIRES
#     TUNEFREQ=1420.0000
# Actual_FREQ1=1420.0000
# Actual_FREQ2=1420.0000
#    LO1Tuning=6870.000
#     RFFILTER=1355_1435
#        OBSBW=-15.6250
#        NCHAN=1024 
#        FOCUS=37.0709
#           RA=00:43:15.21
#          DEC=62:51:25.96
#      RA(hrs)=0.720900
#     DEC(deg)=62.857200
#    AZIM(deg)=328.822
#    ELEV(deg)=56.326
#     IFattens=10.00, 9.00
#      WARNING=None
#    TCAL_XL1=7.9635
#    TCAL_YR1=9.1340
#    TCAL_XL2=7.9635
#    TCAL_YR2=9.1340
#     TRX_XL1=11.7060
#     TRX_YR1=11.7060
#     TRX_XL2=11.7060
#     TRX_YR2=11.7060
#        TAVE=1.0000
#Freq1(MHz)          XL1          YR1  Freq2(MHz)          XL2          YR2 

   1427.81250     375.3585     276.5031   1427.81250     375.3585     276.5031
   1427.79724     376.5437     277.3240   1427.79724     376.5437     277.3240
   1427.78198     377.1567     278.2938   1427.78198     377.1567     278.2938
   1427.76672     378.4037     278.9398   1427.76672     378.4037     278.9398
   1427.75146     378.9617     279.7817   1427.75146     378.9617     279.7817
   1427.73621     379.8481     280.7958   1427.73621     379.8481     280.7958
   1427.72095     380.1950     281.8691   1427.72095     380.1950     281.8691
   1427.70569     381.5454     282.6079   1427.70569     381.5454     282.6079
   1427.69043     382.7605     283.7642   1427.69043     382.7605     283.7642
   1427.67517     383.6151     284.8503   1427.67517     383.6151     284.8503
   1427.65991     384.5598     286.3528   1427.65991     384.5598     286.3528
   1427.64465     386.1708     286.8868   1427.64465     386.1708     286.8868
   1427.62939     386.7765     288.5761   1427.62939     386.7765     288.5761
   1427.61414     389.1499     289.5272   1427.61414     389.1499     289.5272
   1427.59888     389.6789     290.8945   1427.59888     389.6789     290.8945
   1427.58362     391.5685     292.8746   1427.58362     391.5685     292.8746
   1427.56836     392.1695     293.6859   1427.56836     392.1695     293.6859
   1427.55310     394.4039     295.1317   1427.55310     394.4039     295.1317
   1427.53784     395.5447     297.0463   1427.53784     395.5447     297.0463
   1427.52258     397.4727     298.1097   1427.52258     397.4727     298.1097
   1427.50732     398.8201     299.5711   1427.50732     398.8201     299.5711
   1427.49207     400.5728     301.2079   1427.49207     400.5728     301.2079
   1427.47681     402.8147     302.5925   1427.47681     402.8147     302.5925
   1427.46155     404.5737     303.9923   1427.46155     404.5737     303.9923
   1427.44629     406.7419     305.6799   1427.44629     406.7419     305.6799
   1427.43103     407.3026     307.9412   1427.43103     407.3026     307.9412
   1427.41577     409.7638     309.1730   1427.41577     409.7638     309.1730
   1427.40051     412.1015     311.2371   1427.40051     412.1015     311.2371
   1427.38525     414.0852     312.8909   1427.38525     414.0852     312.8909
   1427.37000     415.7969     314.6106   1427.37000     415.7969     314.6106
   1427.35474     418.0023     315.9997   1427.35474     418.0023     315.9997
   1427.33948     420.4710     318.1091   1427.33948     420.4710     318.1091
   1427.32422     422.5290     320.2427   1427.32422     422.5290     320.2427
   1427.30896     423.9068     322.4104   1427.30896     423.9068     322.4104
   1427.29370     427.5259     324.1272   1427.29370     427.5259     324.1272
   1427.27844     429.5752     326.1858   1427.27844     429.5752     326.1858
   1427.26318     431.7027     327.7051   1427.26318     431.7027     327.7051
   1427.24792     433.7210     330.2983   1427.24792     433.7210     330.2983
   1427.23267     436.9538     332.6447   1427.23267     436.9538     332.6447
   1427.21741     438.7015     334.7984   1427.21741     438.7015     334.7984
   1427.20215     441.2884     335.7865   1427.20215     441.2884     335.7865
   1427.18689     443.8391     338.4753   1427.18689     443.8391     338.4753
   1427.17163     446.6095     340.7251   1427.17163     446.6095     340.7251
   1427.15637     448.3959     342.9350   1427.15637     448.3959     342.9350
   1427.14111     452.3227     345.0665   1427.14111     452.3227     345.0665
   1427.12585     454.1807     347.6649   1427.12585     454.1807     347.6649
   1427.11060     457.0115     349.3280   1427.11060     457.0115     349.3280
   1427.09534     459.8068     351.5307   1427.09534     459.8068     351.5307
   1427.08008     461.6746     353.9710   1427.08008     461.6746     353.9710
   1427.06482     465.0389     356.5869   1427.06482     465.0389     356.5869
   1427.04956     468.3415     358.2018   1427.04956     468.3415     358.2018
   1427.03430     470.6482     360.4470   1427.03430     470.6482     360.4470
   1427.01904     474.3205     362.2350   1427.01904     474.3205     362.2350
   1427.00378     477.2605     365.0711   1427.00378     477.2605     365.0711
   1426.98853     480.2343     367.8867   1426.98853     480.2343     367.8867
   1426.97327     482.5282     370.2355   1426.97327     482.5282     370.2355
   1426.95801     485.8644     372.7974   1426.95801     485.8644     372.7974
   1426.94275     487.9308     374.9295   1426.94275     487.9308     374.9295
   1426.92749     491.2148     377.0522   1426.92749     491.2148     377.0522
   1426.91223     494.7372     379.4291   1426.91223     494.7372     379.4291
   1426.89697     497.5900     382.2476   1426.89697     497.5900     382.2476
   1426.88171     500.0918     384.8165   1426.88171     500.0918     384.8165
   1426.86646     503.2016     386.4851   1426.86646     503.2016     386.4851
   1426.85120     507.0383     389.7862   1426.85120     507.0383     389.7862
   1426.83594     509.3804     391.8195   1426.83594     509.3804     391.8195
   1426.82068     512.9742     394.8268   1426.82068     512.9742     394.8268
   1426.80542     515.9835     396.2270   1426.80542     515.9835     396.2270
   1426.79016     518.5794     399.0987   1426.79016     518.5794     399.0987
   1426.77490     523.2195     401.8410   1426.77490     523.2195     401.8410
   1426.75964     524.0701     404.1725   1426.75964     524.0701     404.1725
   1426.74438     527.7941     406.4974   1426.74438     527.7941     406.4974
   1426.72913     530.4310     409.3738   1426.72913     530.4310     409.3738
   1426.71387     533.8541     411.9377   1426.71387     533.8541     411.9377
   1426.69861     537.1212     413.9171   1426.69861     537.1212     413.9171
   1426.68335     540.3611     416.7133   1426.68335     540.3611     416.7133
   1426.66809     544.3708     418.7971   1426.66809     544.3708     418.7971
   1426.65283     546.8115     421.8849   1426.65283     546.8115     421.8849
   1426.63757     550.8394     425.3758   1426.63757     550.8394     425.3758
   1426.62231     566.2438     442.0257   1426.62231     566.2438     442.0257
   1426.60706     560.7047     434.6374   1426.60706     560.7047     434.6374
   1426.59180     559.7753     432.4977   1426.59180     559.7753     432.4977
   1426.57654     563.6240     433.2246   1426.57654     563.6240     433.2246
   1426.56128     565.3910     436.8189   1426.56128     565.3910     436.8189
   1426.54602     568.5040     438.5894   1426.54602     568.5040     438.5894
   1426.53076     571.5920     441.7288   1426.53076     571.5920     441.7288
   1426.51550     575.2485     443.2964   1426.51550     575.2485     443.2964
   1426.50024     577.3594     446.0440   1426.50024     577.3594     446.0440
   1426.48499     581.6398     448.4226   1426.48499     581.6398     448.4226
   1426.46973     583.9766     450.6931   1426.46973     583.9766     450.6931
   1426.45447     586.9318     453.2316   1426.45447     586.9318     453.2316
   1426.43921     589.9025     455.3902   1426.43921     589.9025     455.3902
   1426.42395     592.5198     458.8062   1426.42395     592.5198     458.8062
   1426.40869     597.0420     460.9250   1426.40869     597.0420     460.9250
   1426.39343     598.9285     463.1548   1426.39343     598.9285     463.1548
   1426.37817     602.7379     465.3858   1426.37817     602.7379     465.3858
   1426.36292     603.9896     467.3871   1426.36292     603.9896     467.3871
   1426.34766     608.4963     469.5626   1426.34766     608.4963     469.5626
   1426.33240     610.5907     472.8609   1426.33240     610.5907     472.8609
   1426.31714     614.1709     474.0815   1426.31714     614.1709     474.0815
   1426.30188     616.5647     476.7983   1426.30188     616.5647     476.7983
   1426.28662     619.7346     478.7695   1426.28662     619.7346     478.7695
   1426.27136     623.2295     481.4937   1426.27136     623.2295     481.4937
   1426.25610     625.7009     483.6982   1426.25610     625.7009     483.6982
   1426.24084     629.1901     485.7030   1426.24084     629.1901     485.7030
   1426.22559     630.5809     487.5834   1426.22559     630.5809     487.5834
   1426.21033     634.7181     489.8203   1426.21033     634.7181     489.8203
   1426.19507     636.7390     492.5189   1426.19507     636.7390     492.5189
   1426.17981     639.2953     494.6693   1426.17981     639.2953     494.6693
   1426.16455     641.9744     497.0111   1426.16455     641.9744     497.0111
   1426.14929     644.2935     499.3420   1426.14929     644.2935     499.3420
   1426.13403     648.0289     501.9453   1426.13403     648.0289     501.9453
   1426.11877     649.9666     503.4406   1426.11877     649.9666     503.4406
   1426.10352     652.5739     505.8651   1426.10352     652.5739     505.8651
   1426.08826     654.9489     508.2508   1426.08826     654.9489     508.2508
   1426.07300     656.9445     510.0223   1426.07300     656.9445     510.0223
   1426.05774     660.2936     511.4830   1426.05774     660.2936     511.4830
   1426.04248     662.3177     514.0873   1426.04248     662.3177     514.0873
   1426.02722     665.7646     515.8653   1426.02722     665.7646     515.8653
   1426.01196     667.9713     517.8722   1426.01196     667.9713     517.8722
   1425.99670     670.8895     519.2016   1425.99670     670.8895     519.2016
   1425.98145     672.0807     522.1364   1425.98145     672.0807     522.1364
   1425.96619     674.6832     523.7729   1425.96619     674.6832     523.7729
   1425.95093     678.1828     526.9923   1425.95093     678.1828     526.9923
   1425.93567     680.2350     527.6805   1425.93567     680.2350     527.6805
   1425.92041     682.9581     529.7433   1425.92041     682.9581     529.7433
   1425.90515     684.0546     530.9422   1425.90515     684.0546     530.9422
   1425.88989     687.5720     533.4892   1425.88989     687.5720     533.4892
   1425.87463     688.0866     535.7533   1425.87463     688.0866     535.7533
   1425.85938     689.9477     537.3892   1425.85938     689.9477     537.3892
   1425.84412     693.0656     538.4247   1425.84412     693.0656     538.4247
   1425.82886     694.4801     541.3575   1425.82886     694.4801     541.3575
   1425.81360     696.7957     542.7297   1425.81360     696.7957     542.7297
   1425.79834     699.1231     544.2540   1425.79834     699.1231     544.2540
   1425.78308     700.7500     546.5723   1425.78308     700.7500     546.5723
   1425.76782     703.1700     547.5078   1425.76782     703.1700     547.5078
   1425.75256     704.1520     550.7745   1425.75256     704.1520     550.7745
   1425.73730     707.1666     550.9991   1425.73730     707.1666     550.9991
   1425.72205     708.1319     552.7909   1425.72205     708.1319     552.7909
   1425.70679     710.6234     554.3930   1425.70679     710.6234     554.3930
   1425.69153     712.4520     556.1303   1425.69153     712.4520     556.1303
   1425.67627     714.3135     558.0060   1425.67627     714.3135     558.0060
   1425.66101     715.2313     559.9185   1425.66101     715.2313     559.9185
   1425.64575     717.5163     561.0209   1425.64575     717.5163     561.0209
   1425.63049     719.6837     562.7518   1425.63049     719.6837     562.7518
   1425.61523     720.6323     563.9556   1425.61523     720.6323     563.9556
   1425.59998     720.7424     566.5543   1425.59998     720.7424     566.5543
   1425.58472     723.9388     567.3367   1425.58472     723.9388     567.3367
   1425.56946     723.8291     568.5873   1425.56946     723.8291     568.5873
   1425.55420     727.7617     570.1364   1425.55420     727.7617     570.1364
   1425.53894     728.3752     571.7907   1425.53894     728.3752     571.7907
   1425.52368     729.4919     572.7701   1425.52368     729.4919     572.7701
   1425.50842     732.4905     573.9259   1425.50842     732.4905     573.9259
   1425.49316     733.2115     576.7332   1425.49316     733.2115     576.7332
   1425.47791     732.7695     577.5432   1425.47791     732.7695     577.5432
   1425.46265     735.1423     578.1276   1425.46265     735.1423     578.1276
   1425.44739     736.2412     580.3273   1425.44739     736.2412     580.3273
   1425.43213     737.3704     581.9055   1425.43213     737.3704     581.9055
   1425.41687     738.8559     581.9374   1425.41687     738.8559     581.9374
   1425.40161     739.2750     583.7717   1425.40161     739.2750     583.7717
   1425.38635     742.3832     585.3575   1425.38635     742.3832     585.3575
   1425.37109     743.3816     587.3567   1425.37109     743.3816     587.3567
   1425.35583     744.1860     586.6841   1425.35583     744.1860     586.6841
   1425.34058     744.3829     588.7252   1425.34058     744.3829     588.7252
   1425.32532     743.4906     590.3416   1425.32532     743.4906     590.3416
   1425.31006     746.6567     592.3943   1425.31006     746.6567     592.3943
   1425.29480     746.8783     591.9415   1425.29480     746.8783     591.9415
   1425.27954     748.2441     592.6892   1425.27954     748.2441     592.6892
   1425.26428     749.3298     595.3767   1425.26428     749.3298     595.3767
   1425.24902     749.3462     595.9677   1425.24902     749.3462     595.9677
   1425.23376     750.5874     596.4515   1425.23376     750.5874     596.4515
   1425.21851     751.4546     597.8144   1425.21851     751.4546     597.8144
   1425.20325     753.1854     599.7171   1425.20325     753.1854     599.7171
   1425.18799     753.2516     599.7646   1425.18799     753.2516     599.7646
   1425.17273     753.3121     601.3785   1425.17273     753.3121     601.3785
   1425.15747     754.2280     602.2524   1425.15747     754.2280     602.2524
   1425.14221     754.4308     603.5890   1425.14221     754.4308     603.5890
   1425.12695     755.4728     604.5413   1425.12695     755.4728     604.5413
   1425.11169     756.0540     604.9808   1425.11169     756.0540     604.9808
   1425.09644     757.8970     606.2692   1425.09644     757.8970     606.2692
   1425.08118     758.2556     606.5778   1425.08118     758.2556     606.5778
   1425.06592     758.2346     607.6744   1425.06592     758.2346     607.6744
   1425.05066     759.1774     607.9652   1425.05066     759.1774     607.9652
   1425.03540     759.4846     608.9518   1425.03540     759.4846     608.9518
   1425.02014     760.6243     610.7728   1425.02014     760.6243     610.7728
   1425.00488     760.3973     611.0807   1425.00488     760.3973     611.0807
   1424.98962     760.5438     611.3762   1424.98962     760.5438     611.3762
   1424.97437     760.9263     613.7266   1424.97437     760.9263     613.7266
   1424.95911     761.5557     613.1293   1424.95911     761.5557     613.1293
   1424.94385     762.3721     615.7573   1424.94385     762.3721     615.7573
   1424.92859     761.3555     616.0019   1424.92859     761.3555     616.0019
   1424.91333     761.7773     615.5991   1424.91333     761.7773     615.5991
   1424.89807     762.4001     617.6127   1424.89807     762.4001     617.6127
   1424.88281     763.6635     617.9403   1424.88281     763.6635     617.9403
   1424.86755     762.8353     619.0833   1424.86755     762.8353     619.0833
   1424.85229     763.5674     618.8386   1424.85229     763.5674     618.8386
   1424.83704     763.8181     619.9421   1424.83704     763.8181     619.9421
   1424.82178     763.2610     619.6201   1424.82178     763.2610     619.6201
   1424.80652     764.1140     620.4153   1424.80652     764.1140     620.4153
   1424.79126     763.8259     621.1404   1424.79126     763.8259     621.1404
   1424.77600     763.2381     621.9783   1424.77600     763.2381     621.9783
   1424.76074     764.1562     621.9821   1424.76074     764.1562     621.9821
   1424.74548     763.2137     622.9208   1424.74548     763.2137     622.9208
   1424.73022     763.8113     624.1733   1424.73022     763.8113     624.1733
   1424.71497     765.1862     624.9401   1424.71497     765.1862     624.9401
   1424.69971     764.1652     625.1577   1424.69971     764.1652     625.1577
   1424.68445     765.3366     625.3177   1424.68445     765.3366     625.3177
   1424.66919     764.2241     626.0475   1424.66919     764.2241     626.0475
   1424.65393     763.8343     626.5438   1424.65393     763.8343     626.5438
   1424.63867     764.9791     626.4783   1424.63867     764.9791     626.4783
   1424.62341     764.2987     627.0737   1424.62341     764.2987     627.0737
   1424.60815     765.0856     627.1951   1424.60815     765.0856     627.1951
   1424.59290     764.5823     628.6322   1424.59290     764.5823     628.6322
   1424.57764     763.6697     629.7741   1424.57764     763.6697     629.7741
   1424.56238     763.6122     629.6350   1424.56238     763.6122     629.6350
   1424.54712     763.6194     630.0894   1424.54712     763.6194     630.0894
   1424.53186     763.9843     629.3745   1424.53186     763.9843     629.3745
   1424.51660     763.0647     630.7922   1424.51660     763.0647     630.7922
   1424.50134     764.0505     630.1186   1424.50134     764.0505     630.1186
   1424.48608     763.4221     631.9811   1424.48608     763.4221     631.9811
   1424.47083     762.0093     632.8238   1424.47083     762.0093     632.8238
   1424.45557     763.4422     632.5243   1424.45557     763.4422     632.5243
   1424.44031     762.9877     632.7963   1424.44031     762.9877     632.7963
   1424.42505     762.8455     631.8844   1424.42505     762.8455     631.8844
   1424.40979     763.7597     632.2640   1424.40979     763.7597     632.2640
   1424.39453     763.3090     632.3235   1424.39453     763.3090     632.3235
   1424.37927     762.9382     634.3375   1424.37927     762.9382     634.3375
   1424.36401     762.4615     634.3111   1424.36401     762.4615     634.3111
   1424.34875     761.5660     634.2730   1424.34875     761.5660     634.2730
   1424.33350     762.0884     634.9490   1424.33350     762.0884     634.9490
   1424.31824     761.4313     634.6169   1424.31824     761.4313     634.6169
   1424.30298     761.3135     634.6993   1424.30298     761.3135     634.6993
   1424.28772     759.6799     635.8965   1424.28772     759.6799     635.8965
   1424.27246     759.3248     635.8389   1424.27246     759.3248     635.8389
   1424.25720     759.7288     635.9808   1424.25720     759.7288     635.9808
   1424.24194     759.8652     636.1933   1424.24194     759.8652     636.1933
   1424.22668     759.1123     635.9690   1424.22668     759.1123     635.9690
   1424.21143     759.2811     636.4537   1424.21143     759.2811     636.4537
   1424.19617     758.8824     637.3117   1424.19617     758.8824     637.3117
   1424.18091     757.5103     637.6951   1424.18091     757.5103     637.6951
   1424.16565     759.2140     636.3405   1424.16565     759.2140     636.3405
