#     FILENAME=!Skynet_57528_lach-hhg-127_20422_20951.cyb.fits
#     BASENAME=Skynet_57528_lach-hhg-127_20422_20951
#     SRC_NAME=lach-hhg-127
#     OBSERVER=hhgmadison16_9500
#     DATE_OBS=2016-05-20T16:51:31.500
#        OBSID=20422
#      SCANNUM=20951
#          MJD=57528.7035
#          UTC=60780
#     SCANTYPE=track
#     DATAMODE=HIRES
#     TUNEFREQ=1420.0000
# Actual_FREQ1=1420.0000
# Actual_FREQ2=1420.0000
#    LO1Tuning=6870.000
#     RFFILTER=1355_1435
#        OBSBW=-15.6250
#        NCHAN=1024 
#        FOCUS=37.0709
#           RA=01:26:53.41
#          DEC=62:35:23.91
#      RA(hrs)=1.448200
#     DEC(deg)=62.590000
#    AZIM(deg)=332.482
#    ELEV(deg)=59.689
#     IFattens=10.00, 9.00
#      WARNING=None
#    TCAL_XL1=7.9635
#    TCAL_YR1=9.1340
#    TCAL_XL2=7.9635
#    TCAL_YR2=9.1340
#     TRX_XL1=11.7060
#     TRX_YR1=11.7060
#     TRX_XL2=11.7060
#     TRX_YR2=11.7060
#        TAVE=1.0000
#Freq1(MHz)          XL1          YR1  Freq2(MHz)          XL2          YR2 

   1427.81250     378.8603     283.4424   1427.81250     378.8603     283.4424
   1427.79724     379.1654     284.4912   1427.79724     379.1654     284.4912
   1427.78198     380.2621     285.5124   1427.78198     380.2621     285.5124
   1427.76672     380.8002     286.7300   1427.76672     380.8002     286.7300
   1427.75146     381.7646     287.3721   1427.75146     381.7646     287.3721
   1427.73621     382.5944     288.4465   1427.73621     382.5944     288.4465
   1427.72095     383.8926     289.4016   1427.72095     383.8926     289.4016
   1427.70569     384.4951     290.0177   1427.70569     384.4951     290.0177
   1427.69043     385.3180     292.0899   1427.69043     385.3180     292.0899
   1427.67517     386.6236     292.9780   1427.67517     386.6236     292.9780
   1427.65991     387.4973     294.1519   1427.65991     387.4973     294.1519
   1427.64465     388.8125     294.9712   1427.64465     388.8125     294.9712
   1427.62939     390.4492     296.4544   1427.62939     390.4492     296.4544
   1427.61414     391.2501     297.9388   1427.61414     391.2501     297.9388
   1427.59888     392.5609     298.8667   1427.59888     392.5609     298.8667
   1427.58362     394.5181     300.6395   1427.58362     394.5181     300.6395
   1427.56836     395.6591     301.7054   1427.56836     395.6591     301.7054
   1427.55310     397.4120     303.6971   1427.55310     397.4120     303.6971
   1427.53784     399.1062     304.8811   1427.53784     399.1062     304.8811
   1427.52258     400.6035     306.9450   1427.52258     400.6035     306.9450
   1427.50732     402.3579     308.4719   1427.50732     402.3579     308.4719
   1427.49207     404.7881     309.8072   1427.49207     404.7881     309.8072
   1427.47681     405.7211     311.8040   1427.47681     405.7211     311.8040
   1427.46155     408.5547     313.2816   1427.46155     408.5547     313.2816
   1427.44629     409.5132     314.8337   1427.44629     409.5132     314.8337
   1427.43103     411.4291     315.9824   1427.43103     411.4291     315.9824
   1427.41577     414.0715     318.5422   1427.41577     414.0715     318.5422
   1427.40051     415.5691     320.2939   1427.40051     415.5691     320.2939
   1427.38525     418.0113     322.3000   1427.38525     418.0113     322.3000
   1427.37000     420.5102     324.1906   1427.37000     420.5102     324.1906
   1427.35474     421.5619     325.8186   1427.35474     421.5619     325.8186
   1427.33948     424.0569     328.5156   1427.33948     424.0569     328.5156
   1427.32422     425.9817     329.7889   1427.32422     425.9817     329.7889
   1427.30896     428.5837     331.8117   1427.30896     428.5837     331.8117
   1427.29370     430.8431     334.3982   1427.29370     430.8431     334.3982
   1427.27844     433.5822     335.9452   1427.27844     433.5822     335.9452
   1427.26318     436.0089     338.1613   1427.26318     436.0089     338.1613
   1427.24792     437.9671     340.5781   1427.24792     437.9671     340.5781
   1427.23267     440.5316     342.4882   1427.23267     440.5316     342.4882
   1427.21741     442.9596     344.0526   1427.21741     442.9596     344.0526
   1427.20215     445.8716     346.4989   1427.20215     445.8716     346.4989
   1427.18689     448.8646     349.2081   1427.18689     448.8646     349.2081
   1427.17163     450.8471     351.2343   1427.17163     450.8471     351.2343
   1427.15637     453.2523     353.2989   1427.15637     453.2523     353.2989
   1427.14111     456.5162     355.7439   1427.14111     456.5162     355.7439
   1427.12585     459.6749     358.6095   1427.12585     459.6749     358.6095
   1427.11060     461.5419     360.2808   1427.11060     461.5419     360.2808
   1427.09534     464.6544     363.0348   1427.09534     464.6544     363.0348
   1427.08008     468.1133     364.9488   1427.08008     468.1133     364.9488
   1427.06482     471.0052     367.5141   1427.06482     471.0052     367.5141
   1427.04956     473.4713     370.4323   1427.04956     473.4713     370.4323
   1427.03430     475.8713     372.2506   1427.03430     475.8713     372.2506
   1427.01904     478.9977     373.9354   1427.01904     478.9977     373.9354
   1427.00378     481.8646     377.5451   1427.00378     481.8646     377.5451
   1426.98853     484.7822     379.7869   1426.98853     484.7822     379.7869
   1426.97327     488.4217     382.7333   1426.97327     488.4217     382.7333
   1426.95801     490.5305     384.2461   1426.95801     490.5305     384.2461
   1426.94275     494.2088     387.5241   1426.94275     494.2088     387.5241
   1426.92749     496.2495     390.0459   1426.92749     496.2495     390.0459
   1426.91223     500.0387     392.5167   1426.91223     500.0387     392.5167
   1426.89697     503.8452     394.4933   1426.89697     503.8452     394.4933
   1426.88171     506.6738     397.2243   1426.88171     506.6738     397.2243
   1426.86646     509.6966     400.3132   1426.86646     509.6966     400.3132
   1426.85120     512.5591     402.0853   1426.85120     512.5591     402.0853
   1426.83594     515.9471     405.1936   1426.83594     515.9471     405.1936
   1426.82068     518.4110     407.2909   1426.82068     518.4110     407.2909
   1426.80542     522.0085     409.9577   1426.80542     522.0085     409.9577
   1426.79016     525.0976     412.5048   1426.79016     525.0976     412.5048
   1426.77490     528.3118     415.7368   1426.77490     528.3118     415.7368
   1426.75964     531.1776     417.6984   1426.75964     531.1776     417.6984
   1426.74438     534.7374     421.1934   1426.74438     534.7374     421.1934
   1426.72913     538.1005     422.7637   1426.72913     538.1005     422.7637
   1426.71387     541.1525     425.6063   1426.71387     541.1525     425.6063
   1426.69861     544.8649     428.2449   1426.69861     544.8649     428.2449
   1426.68335     546.9833     431.5827   1426.68335     546.9833     431.5827
   1426.66809     550.6918     433.7814   1426.66809     550.6918     433.7814
   1426.65283     554.5620     435.9799   1426.65283     554.5620     435.9799
   1426.63757     557.8855     438.5041   1426.63757     557.8855     438.5041
   1426.62231     564.5173     444.6869   1426.62231     564.5173     444.6869
   1426.60706     564.5406     445.2606   1426.60706     564.5406     445.2606
   1426.59180     568.4183     446.5314   1426.59180     568.4183     446.5314
   1426.57654     571.1591     448.9760   1426.57654     571.1591     448.9760
   1426.56128     573.1459     451.3766   1426.56128     573.1459     451.3766
   1426.54602     575.9489     453.8904   1426.54602     575.9489     453.8904
   1426.53076     579.8220     455.9016   1426.53076     579.8220     455.9016
   1426.51550     583.7017     459.1763   1426.51550     583.7017     459.1763
   1426.50024     586.5394     461.2390   1426.50024     586.5394     461.2390
   1426.48499     588.4506     463.8603   1426.48499     588.4506     463.8603
   1426.46973     592.7776     466.9665   1426.46973     592.7776     466.9665
   1426.45447     596.4196     470.0114   1426.45447     596.4196     470.0114
   1426.43921     598.9660     470.9705   1426.43921     598.9660     470.9705
   1426.42395     602.0040     473.7809   1426.42395     602.0040     473.7809
   1426.40869     604.2777     476.5109   1426.40869     604.2777     476.5109
   1426.39343     607.8326     478.7285   1426.39343     607.8326     478.7285
   1426.37817     610.9731     481.8467   1426.37817     610.9731     481.8467
   1426.36292     615.0930     484.2908   1426.36292     615.0930     484.2908
   1426.34766     617.6041     486.7504   1426.34766     617.6041     486.7504
   1426.33240     619.4253     488.4496   1426.33240     619.4253     488.4496
   1426.31714     623.4179     491.0885   1426.31714     623.4179     491.0885
   1426.30188     626.6667     493.3223   1426.30188     626.6667     493.3223
   1426.28662     629.3586     495.7307   1426.28662     629.3586     495.7307
   1426.27136     633.1391     498.8604   1426.27136     633.1391     498.8604
   1426.25610     635.1491     500.2906   1426.25610     635.1491     500.2906
   1426.24084     638.8904     503.2520   1426.24084     638.8904     503.2520
   1426.22559     641.4620     505.4698   1426.22559     641.4620     505.4698
   1426.21033     644.8193     508.1757   1426.21033     644.8193     508.1757
   1426.19507     646.3913     510.2838   1426.19507     646.3913     510.2838
   1426.17981     649.0491     513.3694   1426.17981     649.0491     513.3694
   1426.16455     652.6791     514.0358   1426.16455     652.6791     514.0358
   1426.14929     654.9933     515.9475   1426.14929     654.9933     515.9475
   1426.13403     658.8556     519.2505   1426.13403     658.8556     519.2505
   1426.11877     660.7213     521.0165   1426.11877     660.7213     521.0165
   1426.10352     663.3784     523.7503   1426.10352     663.3784     523.7503
   1426.08826     665.8004     524.5986   1426.08826     665.8004     524.5986
   1426.07300     669.2354     527.6505   1426.07300     669.2354     527.6505
   1426.05774     671.4786     529.1779   1426.05774     671.4786     529.1779
   1426.04248     674.2020     531.6705   1426.04248     674.2020     531.6705
   1426.02722     676.9167     534.1558   1426.02722     676.9167     534.1558
   1426.01196     678.5094     535.4237   1426.01196     678.5094     535.4237
   1425.99670     682.2682     537.4809   1425.99670     682.2682     537.4809
   1425.98145     683.7834     540.4223   1425.98145     683.7834     540.4223
   1425.96619     686.4346     541.7963   1425.96619     686.4346     541.7963
   1425.95093     689.1946     543.2383   1425.95093     689.1946     543.2383
   1425.93567     690.9214     545.5552   1425.93567     690.9214     545.5552
   1425.92041     693.0969     547.7947   1425.92041     693.0969     547.7947
   1425.90515     696.6802     549.4818   1425.90515     696.6802     549.4818
   1425.88989     698.4933     551.3085   1425.88989     698.4933     551.3085
   1425.87463     701.4711     553.2382   1425.87463     701.4711     553.2382
   1425.85938     703.1204     555.3144   1425.85938     703.1204     555.3144
   1425.84412     705.8636     556.1268   1425.84412     705.8636     556.1268
   1425.82886     706.9437     557.6921   1425.82886     706.9437     557.6921
   1425.81360     709.7855     561.2525   1425.81360     709.7855     561.2525
   1425.79834     711.9834     562.5538   1425.79834     711.9834     562.5538
   1425.78308     714.4850     563.6186   1425.78308     714.4850     563.6186
   1425.76782     715.1223     565.4700   1425.76782     715.1223     565.4700
   1425.75256     718.4522     567.1143   1425.75256     718.4522     567.1143
   1425.73730     718.6472     569.7481   1425.73730     718.6472     569.7481
   1425.72205     722.2461     570.7233   1425.72205     722.2461     570.7233
   1425.70679     723.2784     572.3026   1425.70679     723.2784     572.3026
   1425.69153     724.7614     573.7772   1425.69153     724.7614     573.7772
   1425.67627     727.0668     575.5026   1425.67627     727.0668     575.5026
   1425.66101     730.1857     577.3329   1425.66101     730.1857     577.3329
   1425.64575     730.2828     577.8885   1425.64575     730.2828     577.8885
   1425.63049     733.0410     579.8889   1425.63049     733.0410     579.8889
   1425.61523     733.6501     581.7682   1425.61523     733.6501     581.7682
   1425.59998     735.2416     582.4052   1425.59998     735.2416     582.4052
   1425.58472     737.6390     583.9614   1425.58472     737.6390     583.9614
   1425.56946     739.4472     586.6355   1425.56946     739.4472     586.6355
   1425.55420     740.8448     587.3669   1425.55420     740.8448     587.3669
   1425.53894     742.3792     588.5955   1425.53894     742.3792     588.5955
   1425.52368     743.7361     589.6863   1425.52368     743.7361     589.6863
   1425.50842     744.8279     590.5930   1425.50842     744.8279     590.5930
   1425.49316     746.7461     592.6261   1425.49316     746.7461     592.6261
   1425.47791     747.0498     595.2006   1425.47791     747.0498     595.2006
   1425.46265     750.7607     595.3227   1425.46265     750.7607     595.3227
   1425.44739     750.3429     597.6867   1425.44739     750.3429     597.6867
   1425.43213     752.0406     597.5121   1425.43213     752.0406     597.5121
   1425.41687     754.4482     599.9751   1425.41687     754.4482     599.9751
   1425.40161     754.2568     601.9161   1425.40161     754.2568     601.9161
   1425.38635     756.1436     601.8062   1425.38635     756.1436     601.8062
   1425.37109     756.1638     602.5699   1425.37109     756.1638     602.5699
   1425.35583     758.1434     604.4025   1425.35583     758.1434     604.4025
   1425.34058     758.1704     605.9287   1425.34058     758.1704     605.9287
   1425.32532     759.7621     605.7692   1425.32532     759.7621     605.7692
   1425.31006     759.5160     606.4518   1425.31006     759.5160     606.4518
   1425.29480     763.9266     609.1428   1425.29480     763.9266     609.1428
   1425.27954     764.3881     609.7072   1425.27954     764.3881     609.7072
   1425.26428     763.3749     610.5220   1425.26428     763.3749     610.5220
   1425.24902     765.0257     611.1547   1425.24902     765.0257     611.1547
   1425.23376     766.4667     613.2579   1425.23376     766.4667     613.2579
   1425.21851     766.4001     613.8730   1425.21851     766.4001     613.8730
   1425.20325     766.6266     614.6577   1425.20325     766.6266     614.6577
   1425.18799     767.7208     615.4521   1425.18799     767.7208     615.4521
   1425.17273     767.4374     615.8304   1425.17273     767.4374     615.8304
   1425.15747     769.9984     617.1738   1425.15747     769.9984     617.1738
   1425.14221     769.7173     618.5670   1425.14221     769.7173     618.5670
   1425.12695     771.6452     619.1752   1425.12695     771.6452     619.1752
   1425.11169     771.8289     619.5346   1425.11169     771.8289     619.5346
   1425.09644     770.5203     620.3698   1425.09644     770.5203     620.3698
   1425.08118     773.4688     621.6293   1425.08118     773.4688     621.6293
   1425.06592     774.2155     622.9759   1425.06592     774.2155     622.9759
   1425.05066     774.7436     623.8633   1425.05066     774.7436     623.8633
   1425.03540     775.3932     624.2758   1425.03540     775.3932     624.2758
   1425.02014     774.9243     624.8831   1425.02014     774.9243     624.8831
   1425.00488     777.6042     625.6440   1425.00488     777.6042     625.6440
   1424.98962     775.4468     627.1248   1424.98962     775.4468     627.1248
   1424.97437     775.9167     626.1644   1424.97437     775.9167     626.1644
   1424.95911     775.6270     627.6324   1424.95911     775.6270     627.6324
   1424.94385     777.7517     628.2623   1424.94385     777.7517     628.2623
   1424.92859     778.2795     629.3244   1424.92859     778.2795     629.3244
   1424.91333     778.2346     629.0599   1424.91333     778.2346     629.0599
   1424.89807     778.6627     630.0884   1424.89807     778.6627     630.0884
   1424.88281     779.2286     630.5140   1424.88281     779.2286     630.5140
   1424.86755     777.8800     631.1269   1424.86755     777.8800     631.1269
   1424.85229     779.7382     632.9463   1424.85229     779.7382     632.9463
   1424.83704     778.3591     632.3870   1424.83704     778.3591     632.3870
   1424.82178     779.6192     632.1154   1424.82178     779.6192     632.1154
   1424.80652     778.9996     634.2098   1424.80652     778.9996     634.2098
   1424.79126     780.0161     634.2077   1424.79126     780.0161     634.2077
   1424.77600     780.5101     635.4188   1424.77600     780.5101     635.4188
   1424.76074     780.2844     634.1397   1424.76074     780.2844     634.1397
   1424.74548     780.4995     635.5436   1424.74548     780.4995     635.5436
   1424.73022     781.1663     635.9823   1424.73022     781.1663     635.9823
   1424.71497     780.3474     637.1640   1424.71497     780.3474     637.1640
   1424.69971     781.5073     636.7971   1424.69971     781.5073     636.7971
   1424.68445     780.7584     636.7271   1424.68445     780.7584     636.7271
   1424.66919     779.9286     637.5343   1424.66919     779.9286     637.5343
   1424.65393     779.4858     638.2877   1424.65393     779.4858     638.2877
   1424.63867     780.1178     637.3427   1424.63867     780.1178     637.3427
   1424.62341     780.2579     638.4850   1424.62341     780.2579     638.4850
   1424.60815     780.7979     639.2435   1424.60815     780.7979     639.2435
   1424.59290     780.3792     640.5202   1424.59290     780.3792     640.5202
   1424.57764     779.7394     638.7837   1424.57764     779.7394     638.7837
   1424.56238     779.7066     639.9848   1424.56238     779.7066     639.9848
   1424.54712     780.8913     640.0290   1424.54712     780.8913     640.0290
   1424.53186     779.4639     640.1993   1424.53186     779.4639     640.1993
   1424.51660     779.2333     639.9611   1424.51660     779.2333     639.9611
   1424.50134     779.8448     640.7672   1424.50134     779.8448     640.7672
   1424.48608     780.3229     640.9341   1424.48608     780.3229     640.9341
   1424.47083     779.1892     641.0320   1424.47083     779.1892     641.0320
   1424.45557     778.4714     641.0452   1424.45557     778.4714     641.0452
   1424.44031     779.9749     640.9487   1424.44031     779.9749     640.9487
   1424.42505     779.2695     641.4364   1424.42505     779.2695     641.4364
   1424.40979     778.5178     641.8427   1424.40979     778.5178     641.8427
   1424.39453     778.1538     641.2438   1424.39453     778.1538     641.2438
   1424.37927     779.3578     641.9661   1424.37927     779.3578     641.9661
   1424.36401     777.3943     641.4598   1424.36401     777.3943     641.4598
   1424.34875     778.1078     642.9505   1424.34875     778.1078     642.9505
   1424.33350     777.2196     641.6212   1424.33350     777.2196     641.6212
   1424.31824     777.1672     642.2692   1424.31824     777.1672     642.2692
   1424.30298     775.5463     641.7725   1424.30298     775.5463     641.7725
   1424.28772     775.6732     642.7088   1424.28772     775.6732     642.7088
   1424.27246     776.3198     642.4338   1424.27246     776.3198     642.4338
   1424.25720     776.6386     642.8101   1424.25720     776.6386     642.8101
   1424.24194     775.3472     643.0696   1424.24194     775.3472     643.0696
   1424.22668     774.9930     642.0727   1424.22668     774.9930     642.0727
   1424.21143     775.4231     642.5077   1424.21143     775.4231     642.5077
   1424.19617     774.1970     642.4283   1424.19617     774.1970     642.4283
   1424.18091     773.1537     642.0735   1424.18091     773.1537     642.0735
   1424.16565     773.9984     642.2401   1424.16565     773.9984     642.2401
