#     FILENAME=!Skynet_57528_lach-cc-211_20619_21048.cyb.fits
#     BASENAME=Skynet_57528_lach-cc-211_20619_21048
#     SRC_NAME=lach-cc-211
#     OBSERVER=ccmadison16_9505
#     DATE_OBS=2016-05-20T20:12:51.680
#        OBSID=20619
#      SCANNUM=21048
#          MJD=57528.8433
#          UTC=72860
#     SCANTYPE=track
#     DATAMODE=HIRES
#     TUNEFREQ=1420.0000
# Actual_FREQ1=1420.0000
# Actual_FREQ2=1420.0000
#    LO1Tuning=6870.000
#     RFFILTER=1355_1435
#        OBSBW=-15.6250
#        NCHAN=1024 
#        FOCUS=37.0709
#           RA=06:47:52.29
#          DEC=01:43:09.41
#      RA(hrs)=6.797900
#     DEC(deg)=1.719300
#    AZIM(deg)=179.662
#    ELEV(deg)=53.123
#     IFattens=10.00, 9.00
#      WARNING=None
#    TCAL_XL1=7.9635
#    TCAL_YR1=9.1340
#    TCAL_XL2=7.9635
#    TCAL_YR2=9.1340
#     TRX_XL1=11.7060
#     TRX_YR1=11.7060
#     TRX_XL2=11.7060
#     TRX_YR2=11.7060
#        TAVE=1.0000
#Freq1(MHz)          XL1          YR1  Freq2(MHz)          XL2          YR2 

   1427.81250     353.5204     260.0367   1427.81250     353.5204     260.0367
   1427.79724     353.9140     260.2148   1427.79724     353.9140     260.2148
   1427.78198     354.3696     261.1884   1427.78198     354.3696     261.1884
   1427.76672     355.5049     261.8664   1427.76672     355.5049     261.8664
   1427.75146     356.5003     262.7984   1427.75146     356.5003     262.7984
   1427.73621     357.5710     263.7376   1427.73621     357.5710     263.7376
   1427.72095     357.4041     264.5919   1427.72095     357.4041     264.5919
   1427.70569     358.3445     265.2056   1427.70569     358.3445     265.2056
   1427.69043     359.8740     265.7016   1427.69043     359.8740     265.7016
   1427.67517     361.5185     266.5056   1427.67517     361.5185     266.5056
   1427.65991     361.7107     268.3514   1427.65991     361.7107     268.3514
   1427.64465     362.1928     268.9908   1427.64465     362.1928     268.9908
   1427.62939     364.4672     270.2079   1427.62939     364.4672     270.2079
   1427.61414     365.5997     271.1724   1427.61414     365.5997     271.1724
   1427.59888     366.7509     272.1248   1427.59888     366.7509     272.1248
   1427.58362     367.8444     273.2628   1427.58362     367.8444     273.2628
   1427.56836     369.5389     274.2347   1427.56836     369.5389     274.2347
   1427.55310     371.0537     275.7115   1427.55310     371.0537     275.7115
   1427.53784     371.9467     276.6896   1427.53784     371.9467     276.6896
   1427.52258     373.5691     278.0824   1427.52258     373.5691     278.0824
   1427.50732     374.9399     279.7925   1427.50732     374.9399     279.7925
   1427.49207     376.4646     280.5035   1427.49207     376.4646     280.5035
   1427.47681     378.4976     282.4110   1427.47681     378.4976     282.4110
   1427.46155     380.1645     283.6609   1427.46155     380.1645     283.6609
   1427.44629     382.0757     285.4625   1427.44629     382.0757     285.4625
   1427.43103     383.2895     286.7392   1427.43103     383.2895     286.7392
   1427.41577     385.0106     288.0419   1427.41577     385.0106     288.0419
   1427.40051     387.0966     289.9508   1427.40051     387.0966     289.9508
   1427.38525     389.0567     291.5676   1427.38525     389.0567     291.5676
   1427.37000     390.8295     292.9115   1427.37000     390.8295     292.9115
   1427.35474     393.0045     295.1371   1427.35474     393.0045     295.1371
   1427.33948     394.6058     296.6124   1427.33948     394.6058     296.6124
   1427.32422     397.0227     298.6361   1427.32422     397.0227     298.6361
   1427.30896     398.8781     299.8665   1427.30896     398.8781     299.8665
   1427.29370     400.5985     301.8950   1427.29370     400.5985     301.8950
   1427.27844     402.7191     304.2421   1427.27844     402.7191     304.2421
   1427.26318     404.9502     305.4536   1427.26318     404.9502     305.4536
   1427.24792     406.9824     307.0311   1427.24792     406.9824     307.0311
   1427.23267     409.8429     309.4292   1427.23267     409.8429     309.4292
   1427.21741     412.0493     311.6843   1427.21741     412.0493     311.6843
   1427.20215     414.3932     312.9974   1427.20215     414.3932     312.9974
   1427.18689     417.4177     315.3858   1427.18689     417.4177     315.3858
   1427.17163     418.7796     317.0225   1427.17163     418.7796     317.0225
   1427.15637     420.2824     319.5046   1427.15637     420.2824     319.5046
   1427.14111     423.4325     321.4169   1427.14111     423.4325     321.4169
   1427.12585     425.8850     323.5226   1427.12585     425.8850     323.5226
   1427.11060     428.4725     325.4385   1427.11060     428.4725     325.4385
   1427.09534     431.0562     327.3555   1427.09534     431.0562     327.3555
   1427.08008     433.7251     329.6940   1427.08008     433.7251     329.6940
   1427.06482     436.2378     332.2859   1427.06482     436.2378     332.2859
   1427.04956     438.3344     334.3672   1427.04956     438.3344     334.3672
   1427.03430     441.9185     336.5955   1427.03430     441.9185     336.5955
   1427.01904     443.9224     338.7877   1427.01904     443.9224     338.7877
   1427.00378     445.9635     340.9641   1427.00378     445.9635     340.9641
   1426.98853     448.0305     342.8942   1426.98853     448.0305     342.8942
   1426.97327     451.2357     344.9344   1426.97327     451.2357     344.9344
   1426.95801     453.9583     347.6067   1426.95801     453.9583     347.6067
   1426.94275     456.7851     350.2111   1426.94275     456.7851     350.2111
   1426.92749     459.0825     352.4907   1426.92749     459.0825     352.4907
   1426.91223     462.5427     355.2418   1426.91223     462.5427     355.2418
   1426.89697     464.7447     357.3670   1426.89697     464.7447     357.3670
   1426.88171     467.6694     359.0648   1426.88171     467.6694     359.0648
   1426.86646     471.0374     361.7162   1426.86646     471.0374     361.7162
   1426.85120     473.7996     363.7835   1426.85120     473.7996     363.7835
   1426.83594     476.0389     366.8417   1426.83594     476.0389     366.8417
   1426.82068     478.6215     368.5591   1426.82068     478.6215     368.5591
   1426.80542     481.1220     372.0917   1426.80542     481.1220     372.0917
   1426.79016     483.8020     373.9422   1426.79016     483.8020     373.9422
   1426.77490     486.8316     375.8143   1426.77490     486.8316     375.8143
   1426.75964     488.6868     378.7627   1426.75964     488.6868     378.7627
   1426.74438     492.7233     381.3368   1426.74438     492.7233     381.3368
   1426.72913     494.9258     383.3690   1426.72913     494.9258     383.3690
   1426.71387     498.8615     386.2426   1426.71387     498.8615     386.2426
   1426.69861     501.2565     388.5843   1426.69861     501.2565     388.5843
   1426.68335     503.0550     390.5265   1426.68335     503.0550     390.5265
   1426.66809     506.1272     393.4036   1426.66809     506.1272     393.4036
   1426.65283     508.4131     395.7498   1426.65283     508.4131     395.7498
   1426.63757     511.6018     397.9529   1426.63757     511.6018     397.9529
   1426.62231     515.0782     401.6838   1426.62231     515.0782     401.6838
   1426.60706     517.4098     402.9401   1426.60706     517.4098     402.9401
   1426.59180     520.2743     405.6450   1426.59180     520.2743     405.6450
   1426.57654     523.7330     408.2839   1426.57654     523.7330     408.2839
   1426.56128     525.9438     410.1783   1426.56128     525.9438     410.1783
   1426.54602     528.9875     412.9803   1426.54602     528.9875     412.9803
   1426.53076     531.9022     415.7363   1426.53076     531.9022     415.7363
   1426.51550     534.0698     417.7391   1426.51550     534.0698     417.7391
   1426.50024     536.1801     419.8318   1426.50024     536.1801     419.8318
   1426.48499     539.9276     422.8360   1426.48499     539.9276     422.8360
   1426.46973     542.9669     425.3876   1426.46973     542.9669     425.3876
   1426.45447     544.7956     427.9146   1426.45447     544.7956     427.9146
   1426.43921     547.8356     430.4762   1426.43921     547.8356     430.4762
   1426.42395     549.9310     432.6315   1426.42395     549.9310     432.6315
   1426.40869     552.3204     435.1865   1426.40869     552.3204     435.1865
   1426.39343     555.7837     437.5745   1426.39343     555.7837     437.5745
   1426.37817     558.3461     440.6355   1426.37817     558.3461     440.6355
   1426.36292     561.6121     442.7467   1426.36292     561.6121     442.7467
   1426.34766     563.1822     444.9427   1426.34766     563.1822     444.9427
   1426.33240     566.3222     446.7985   1426.33240     566.3222     446.7985
   1426.31714     569.0840     449.3226   1426.31714     569.0840     449.3226
   1426.30188     571.0662     451.6650   1426.30188     571.0662     451.6650
   1426.28662     574.6141     453.8676   1426.28662     574.6141     453.8676
   1426.27136     576.5377     456.4872   1426.27136     576.5377     456.4872
   1426.25610     578.1137     459.4100   1426.25610     578.1137     459.4100
   1426.24084     582.1886     461.6422   1426.24084     582.1886     461.6422
   1426.22559     583.5765     463.6194   1426.22559     583.5765     463.6194
   1426.21033     585.5767     465.2781   1426.21033     585.5767     465.2781
   1426.19507     590.0432     467.9743   1426.19507     590.0432     467.9743
   1426.17981     591.4855     470.6671   1426.17981     591.4855     470.6671
   1426.16455     593.5525     471.7626   1426.16455     593.5525     471.7626
   1426.14929     595.9684     475.2775   1426.14929     595.9684     475.2775
   1426.13403     599.6115     476.5526   1426.13403     599.6115     476.5526
   1426.11877     601.1705     479.5126   1426.11877     601.1705     479.5126
   1426.10352     603.1819     481.6889   1426.10352     603.1819     481.6889
   1426.08826     605.2382     483.9389   1426.08826     605.2382     483.9389
   1426.07300     607.9296     485.4837   1426.07300     607.9296     485.4837
   1426.05774     608.9614     488.0878   1426.05774     608.9614     488.0878
   1426.04248     612.3942     490.7047   1426.04248     612.3942     490.7047
   1426.02722     613.4465     492.6994   1426.02722     613.4465     492.6994
   1426.01196     616.7789     494.6384   1426.01196     616.7789     494.6384
   1425.99670     618.9194     496.7885   1425.99670     618.9194     496.7885
   1425.98145     620.9989     498.2648   1425.98145     620.9989     498.2648
   1425.96619     623.4545     501.6997   1425.96619     623.4545     501.6997
   1425.95093     624.5047     502.2826   1425.95093     624.5047     502.2826
   1425.93567     626.2343     505.6547   1425.93567     626.2343     505.6547
   1425.92041     627.9717     507.0307   1425.92041     627.9717     507.0307
   1425.90515     631.2330     508.4101   1425.90515     631.2330     508.4101
   1425.88989     632.9265     510.9777   1425.88989     632.9265     510.9777
   1425.87463     634.3475     512.7239   1425.87463     634.3475     512.7239
   1425.85938     636.6743     514.9185   1425.85938     636.6743     514.9185
   1425.84412     638.1180     517.3531   1425.84412     638.1180     517.3531
   1425.82886     639.6880     519.2128   1425.82886     639.6880     519.2128
   1425.81360     641.4971     521.3447   1425.81360     641.4971     521.3447
   1425.79834     644.0008     522.6501   1425.79834     644.0008     522.6501
   1425.78308     646.3676     523.9835   1425.78308     646.3676     523.9835
   1425.76782     646.8491     526.1529   1425.76782     646.8491     526.1529
   1425.75256     649.0131     527.6775   1425.75256     649.0131     527.6775
   1425.73730     650.9187     529.5197   1425.73730     650.9187     529.5197
   1425.72205     652.3923     532.0079   1425.72205     652.3923     532.0079
   1425.70679     653.8314     533.5851   1425.70679     653.8314     533.5851
   1425.69153     655.3409     535.3779   1425.69153     655.3409     535.3779
   1425.67627     656.3038     536.7131   1425.67627     656.3038     536.7131
   1425.66101     658.0388     538.9467   1425.66101     658.0388     538.9467
   1425.64575     660.1546     539.8132   1425.64575     660.1546     539.8132
   1425.63049     661.2441     542.0385   1425.63049     661.2441     542.0385
   1425.61523     662.2274     543.0251   1425.61523     662.2274     543.0251
   1425.59998     664.1583     546.3344   1425.59998     664.1583     546.3344
   1425.58472     665.4669     546.6601   1425.58472     665.4669     546.6601
   1425.56946     666.3586     548.6166   1425.56946     666.3586     548.6166
   1425.55420     667.4097     549.9456   1425.55420     667.4097     549.9456
   1425.53894     668.7917     551.3337   1425.53894     668.7917     551.3337
   1425.52368     671.0265     553.9301   1425.52368     671.0265     553.9301
   1425.50842     671.9796     554.2806   1425.50842     671.9796     554.2806
   1425.49316     674.1168     556.5626   1425.49316     674.1168     556.5626
   1425.47791     674.2921     557.5811   1425.47791     674.2921     557.5811
   1425.46265     675.8774     558.5126   1425.46265     675.8774     558.5126
   1425.44739     677.4943     560.6579   1425.44739     677.4943     560.6579
   1425.43213     676.8997     561.3013   1425.43213     676.8997     561.3013
   1425.41687     679.5996     563.4576   1425.41687     679.5996     563.4576
   1425.40161     678.4766     564.7969   1425.40161     678.4766     564.7969
   1425.38635     681.5952     566.9001   1425.38635     681.5952     566.9001
   1425.37109     681.6873     568.8618   1425.37109     681.6873     568.8618
   1425.35583     682.6556     570.2424   1425.35583     682.6556     570.2424
   1425.34058     684.1182     569.9218   1425.34058     684.1182     569.9218
   1425.32532     683.1389     571.2999   1425.32532     683.1389     571.2999
   1425.31006     685.0636     573.1440   1425.31006     685.0636     573.1440
   1425.29480     686.5381     574.5054   1425.29480     686.5381     574.5054
   1425.27954     686.7953     575.8814   1425.27954     686.7953     575.8814
   1425.26428     688.3398     577.0677   1425.26428     688.3398     577.0677
   1425.24902     689.1163     578.0537   1425.24902     689.1163     578.0537
   1425.23376     689.6533     579.5082   1425.23376     689.6533     579.5082
   1425.21851     690.1230     581.1882   1425.21851     690.1230     581.1882
   1425.20325     690.8539     580.7806   1425.20325     690.8539     580.7806
   1425.18799     691.8013     582.6913   1425.18799     691.8013     582.6913
   1425.17273     691.8633     584.3436   1425.17273     691.8633     584.3436
   1425.15747     693.1732     585.4067   1425.15747     693.1732     585.4067
   1425.14221     694.5864     585.5574   1425.14221     694.5864     585.5574
   1425.12695     693.5890     587.2206   1425.12695     693.5890     587.2206
   1425.11169     694.3757     588.3292   1425.11169     694.3757     588.3292
   1425.09644     695.2594     589.6933   1425.09644     695.2594     589.6933
   1425.08118     696.0516     590.0839   1425.08118     696.0516     590.0839
   1425.06592     696.2552     591.0934   1425.06592     696.2552     591.0934
   1425.05066     697.2565     591.4755   1425.05066     697.2565     591.4755
   1425.03540     697.7463     593.5495   1425.03540     697.7463     593.5495
   1425.02014     696.4507     594.4100   1425.02014     696.4507     594.4100
   1425.00488     697.9362     595.3718   1425.00488     697.9362     595.3718
   1424.98962     697.8877     595.8331   1424.98962     697.8877     595.8331
   1424.97437     698.3366     597.2673   1424.97437     698.3366     597.2673
   1424.95911     699.7115     597.3898   1424.95911     699.7115     597.3898
   1424.94385     700.5635     599.8781   1424.94385     700.5635     599.8781
   1424.92859     699.6060     600.2047   1424.92859     699.6060     600.2047
   1424.91333     702.1102     600.2728   1424.91333     702.1102     600.2728
   1424.89807     700.1904     600.7455   1424.89807     700.1904     600.7455
   1424.88281     701.1685     601.7516   1424.88281     701.1685     601.7516
   1424.86755     700.9325     603.7860   1424.86755     700.9325     603.7860
   1424.85229     702.0831     603.5803   1424.85229     702.0831     603.5803
   1424.83704     702.1135     604.6925   1424.83704     702.1135     604.6925
   1424.82178     701.1914     605.8676   1424.82178     701.1914     605.8676
   1424.80652     701.5107     605.5322   1424.80652     701.5107     605.5322
   1424.79126     701.9842     606.7268   1424.79126     701.9842     606.7268
   1424.77600     702.8022     607.9526   1424.77600     702.8022     607.9526
   1424.76074     701.7374     607.5995   1424.76074     701.7374     607.5995
   1424.74548     701.4762     608.5137   1424.74548     701.4762     608.5137
   1424.73022     702.5317     609.5579   1424.73022     702.5317     609.5579
   1424.71497     702.7377     609.7303   1424.71497     702.7377     609.7303
   1424.69971     703.6894     610.3915   1424.69971     703.6894     610.3915
   1424.68445     703.4042     610.7594   1424.68445     703.4042     610.7594
   1424.66919     703.1694     611.0240   1424.66919     703.1694     611.0240
   1424.65393     702.5538     612.1030   1424.65393     702.5538     612.1030
   1424.63867     703.7656     613.5922   1424.63867     703.7656     613.5922
   1424.62341     702.9525     612.9471   1424.62341     702.9525     612.9471
   1424.60815     703.5126     614.0438   1424.60815     703.5126     614.0438
   1424.59290     702.7209     613.8932   1424.59290     702.7209     613.8932
   1424.57764     702.2745     614.5876   1424.57764     702.2745     614.5876
   1424.56238     703.4170     615.8716   1424.56238     703.4170     615.8716
   1424.54712     701.8409     616.2746   1424.54712     701.8409     616.2746
   1424.53186     703.3423     616.7820   1424.53186     703.3423     616.7820
   1424.51660     704.2589     617.5858   1424.51660     704.2589     617.5858
   1424.50134     702.7119     616.9463   1424.50134     702.7119     616.9463
   1424.48608     702.7656     617.7906   1424.48608     702.7656     617.7906
   1424.47083     702.8543     618.5254   1424.47083     702.8543     618.5254
   1424.45557     702.2803     618.6818   1424.45557     702.2803     618.6818
   1424.44031     701.6975     618.5601   1424.44031     701.6975     618.5601
   1424.42505     701.9847     619.2490   1424.42505     701.9847     619.2490
   1424.40979     702.1508     620.3698   1424.40979     702.1508     620.3698
   1424.39453     701.9320     620.9505   1424.39453     701.9320     620.9505
   1424.37927     702.2977     621.0781   1424.37927     702.2977     621.0781
   1424.36401     702.0314     621.1840   1424.36401     702.0314     621.1840
   1424.34875     700.4489     620.5940   1424.34875     700.4489     620.5940
   1424.33350     701.8977     621.3485   1424.33350     701.8977     621.3485
   1424.31824     700.5209     622.5734   1424.31824     700.5209     622.5734
   1424.30298     700.3609     622.5565   1424.30298     700.3609     622.5565
   1424.28772     699.8945     621.6455   1424.28772     699.8945     621.6455
   1424.27246     700.7619     623.6132   1424.27246     700.7619     623.6132
   1424.25720     702.3635     623.6373   1424.25720     702.3635     623.6373
   1424.24194     701.0388     623.8957   1424.24194     701.0388     623.8957
   1424.22668     699.5029     623.0407   1424.22668     699.5029     623.0407
   1424.21143     699.4933     623.7293   1424.21143     699.4933     623.7293
   1424.19617     699.4489     623.8235   1424.19617     699.4489     623.8235
   1424.18091     699.7062     625.2311   1424.18091     699.7062     625.2311
   1424.16565     698.8566     624.5510   1424.16565     698.8566     624.5510
