#     FILENAME=!Skynet_57528_lach-cc-232_20648_21024.cyb.fits
#     BASENAME=Skynet_57528_lach-cc-232_20648_21024
#     SRC_NAME=lach-cc-232
#     OBSERVER=ccmadison16_9505
#     DATE_OBS=2016-05-20T19:23:55.560
#        OBSID=20648
#      SCANNUM=21024
#          MJD=57528.8093
#          UTC=69925
#     SCANTYPE=track
#     DATAMODE=HIRES
#     TUNEFREQ=1420.0000
# Actual_FREQ1=1420.0000
# Actual_FREQ2=1420.0000
#    LO1Tuning=6870.000
#     RFFILTER=1355_1435
#        OBSBW=-15.6250
#        NCHAN=1024 
#        FOCUS=37.0489
#           RA=07:27:13.35
#          DEC=-16:54:11.33
#      RA(hrs)=7.453700
#     DEC(deg)=-16.903100
#    AZIM(deg)=154.833
#    ELEV(deg)=30.759
#     IFattens=10.00, 9.00
#      WARNING=None
#    TCAL_XL1=7.9635
#    TCAL_YR1=9.1340
#    TCAL_XL2=7.9635
#    TCAL_YR2=9.1340
#     TRX_XL1=11.7060
#     TRX_YR1=11.7060
#     TRX_XL2=11.7060
#     TRX_YR2=11.7060
#        TAVE=1.0000
#Freq1(MHz)          XL1          YR1  Freq2(MHz)          XL2          YR2 

   1427.81250     364.7973     285.7252   1427.81250     364.7973     285.7252
   1427.79724     365.6859     285.7238   1427.79724     365.6859     285.7238
   1427.78198     366.4521     286.7515   1427.78198     366.4521     286.7515
   1427.76672     367.2151     286.7733   1427.76672     367.2151     286.7733
   1427.75146     368.8054     287.4521   1427.75146     368.8054     287.4521
   1427.73621     369.6536     288.0120   1427.73621     369.6536     288.0120
   1427.72095     369.9440     288.4312   1427.72095     369.9440     288.4312
   1427.70569     371.6062     290.1508   1427.70569     371.6062     290.1508
   1427.69043     371.4492     290.3231   1427.69043     371.4492     290.3231
   1427.67517     373.1741     291.3137   1427.67517     373.1741     291.3137
   1427.65991     374.1025     292.0264   1427.65991     374.1025     292.0264
   1427.64465     375.7858     292.9601   1427.64465     375.7858     292.9601
   1427.62939     376.7421     293.6367   1427.62939     376.7421     293.6367
   1427.61414     377.7364     295.0264   1427.61414     377.7364     295.0264
   1427.59888     379.1365     295.7221   1427.59888     379.1365     295.7221
   1427.58362     381.4426     296.2540   1427.58362     381.4426     296.2540
   1427.56836     382.1740     297.7106   1427.56836     382.1740     297.7106
   1427.55310     383.8404     299.3020   1427.55310     383.8404     299.3020
   1427.53784     385.3393     299.8719   1427.53784     385.3393     299.8719
   1427.52258     386.3058     301.4870   1427.52258     386.3058     301.4870
   1427.50732     388.9053     302.8090   1427.50732     388.9053     302.8090
   1427.49207     390.4301     303.3684   1427.49207     390.4301     303.3684
   1427.47681     392.2015     305.2257   1427.47681     392.2015     305.2257
   1427.46155     393.8160     307.1692   1427.46155     393.8160     307.1692
   1427.44629     396.1408     308.0693   1427.44629     396.1408     308.0693
   1427.43103     397.7249     309.0656   1427.43103     397.7249     309.0656
   1427.41577     399.0459     310.8719   1427.41577     399.0459     310.8719
   1427.40051     401.7213     312.1606   1427.40051     401.7213     312.1606
   1427.38525     402.8690     313.9094   1427.38525     402.8690     313.9094
   1427.37000     404.9594     315.3503   1427.37000     404.9594     315.3503
   1427.35474     407.9218     316.6277   1427.35474     407.9218     316.6277
   1427.33948     409.4506     318.5341   1427.33948     409.4506     318.5341
   1427.32422     411.3296     320.0469   1427.32422     411.3296     320.0469
   1427.30896     413.7223     322.4081   1427.30896     413.7223     322.4081
   1427.29370     415.2609     323.3918   1427.29370     415.2609     323.3918
   1427.27844     418.0098     325.3809   1427.27844     418.0098     325.3809
   1427.26318     420.3949     326.9900   1427.26318     420.3949     326.9900
   1427.24792     422.2818     328.3669   1427.24792     422.2818     328.3669
   1427.23267     424.7716     330.2876   1427.23267     424.7716     330.2876
   1427.21741     426.6555     332.4673   1427.21741     426.6555     332.4673
   1427.20215     429.4832     334.5556   1427.20215     429.4832     334.5556
   1427.18689     431.8987     336.4217   1427.18689     431.8987     336.4217
   1427.17163     434.4482     337.8482   1427.17163     434.4482     337.8482
   1427.15637     437.6227     339.7327   1427.15637     437.6227     339.7327
   1427.14111     439.0886     341.8898   1427.14111     439.0886     341.8898
   1427.12585     441.9370     343.7722   1427.12585     441.9370     343.7722
   1427.11060     444.8629     345.7533   1427.11060     444.8629     345.7533
   1427.09534     447.4714     347.4541   1427.09534     447.4714     347.4541
   1427.08008     449.9499     349.9656   1427.08008     449.9499     349.9656
   1427.06482     451.7385     351.5736   1427.06482     451.7385     351.5736
   1427.04956     455.7967     354.1634   1427.04956     455.7967     354.1634
   1427.03430     457.7318     355.9354   1427.03430     457.7318     355.9354
   1427.01904     461.0803     358.3672   1427.01904     461.0803     358.3672
   1427.00378     463.9402     360.9084   1427.00378     463.9402     360.9084
   1426.98853     466.5209     362.4865   1426.98853     466.5209     362.4865
   1426.97327     469.0882     365.1969   1426.97327     469.0882     365.1969
   1426.95801     471.4946     367.3938   1426.95801     471.4946     367.3938
   1426.94275     474.4863     369.0937   1426.94275     474.4863     369.0937
   1426.92749     476.6946     371.5793   1426.92749     476.6946     371.5793
   1426.91223     480.3748     373.3379   1426.91223     480.3748     373.3379
   1426.89697     482.5067     376.0687   1426.89697     482.5067     376.0687
   1426.88171     486.1458     378.3381   1426.88171     486.1458     378.3381
   1426.86646     489.3279     380.3695   1426.86646     489.3279     380.3695
   1426.85120     491.3362     383.0582   1426.85120     491.3362     383.0582
   1426.83594     494.2885     385.5527   1426.83594     494.2885     385.5527
   1426.82068     497.0056     387.5912   1426.82068     497.0056     387.5912
   1426.80542     500.1815     389.9205   1426.80542     500.1815     389.9205
   1426.79016     502.4840     393.0750   1426.79016     502.4840     393.0750
   1426.77490     506.0041     394.5169   1426.77490     506.0041     394.5169
   1426.75964     509.3350     397.3839   1426.75964     509.3350     397.3839
   1426.74438     511.4575     399.7827   1426.74438     511.4575     399.7827
   1426.72913     515.7590     402.2147   1426.72913     515.7590     402.2147
   1426.71387     516.9608     404.3109   1426.71387     516.9608     404.3109
   1426.69861     520.5589     407.2144   1426.69861     520.5589     407.2144
   1426.68335     523.1314     409.4481   1426.68335     523.1314     409.4481
   1426.66809     526.1630     412.3215   1426.66809     526.1630     412.3215
   1426.65283     530.0644     413.6324   1426.65283     530.0644     413.6324
   1426.63757     532.8521     416.2489   1426.63757     532.8521     416.2489
   1426.62231     545.3716     420.9205   1426.62231     545.3716     420.9205
   1426.60706     538.8210     421.4071   1426.60706     538.8210     421.4071
   1426.59180     541.0046     423.8373   1426.59180     541.0046     423.8373
   1426.57654     544.6949     426.3734   1426.57654     544.6949     426.3734
   1426.56128     546.5283     429.1028   1426.56128     546.5283     429.1028
   1426.54602     549.4774     431.2874   1426.54602     549.4774     431.2874
   1426.53076     553.5612     433.8756   1426.53076     553.5612     433.8756
   1426.51550     555.7911     436.8905   1426.51550     555.7911     436.8905
   1426.50024     558.6146     439.2617   1426.50024     558.6146     439.2617
   1426.48499     561.0704     441.7306   1426.48499     561.0704     441.7306
   1426.46973     564.1074     444.1223   1426.46973     564.1074     444.1223
   1426.45447     567.3543     445.8967   1426.45447     567.3543     445.8967
   1426.43921     570.1141     448.4298   1426.43921     570.1141     448.4298
   1426.42395     573.0595     451.0162   1426.42395     573.0595     451.0162
   1426.40869     576.0046     454.1842   1426.40869     576.0046     454.1842
   1426.39343     578.4474     456.1064   1426.39343     578.4474     456.1064
   1426.37817     581.3555     458.8735   1426.37817     581.3555     458.8735
   1426.36292     585.1585     461.5652   1426.36292     585.1585     461.5652
   1426.34766     586.0467     464.1034   1426.34766     586.0467     464.1034
   1426.33240     589.1768     465.8647   1426.33240     589.1768     465.8647
   1426.31714     592.6125     468.5278   1426.31714     592.6125     468.5278
   1426.30188     595.2700     471.2207   1426.30188     595.2700     471.2207
   1426.28662     597.5952     473.0251   1426.28662     597.5952     473.0251
   1426.27136     600.8988     475.4432   1426.27136     600.8988     475.4432
   1426.25610     602.9962     478.2982   1426.25610     602.9962     478.2982
   1426.24084     605.6216     480.4098   1426.24084     605.6216     480.4098
   1426.22559     607.8335     482.8897   1426.22559     607.8335     482.8897
   1426.21033     610.4391     485.7092   1426.21033     610.4391     485.7092
   1426.19507     612.7027     488.1102   1426.19507     612.7027     488.1102
   1426.17981     616.2222     490.9731   1426.17981     616.2222     490.9731
   1426.16455     618.7649     492.7748   1426.16455     618.7649     492.7748
   1426.14929     620.8935     495.1579   1426.14929     620.8935     495.1579
   1426.13403     624.5052     498.0448   1426.13403     624.5052     498.0448
   1426.11877     625.5745     499.9975   1426.11877     625.5745     499.9975
   1426.10352     627.5108     502.1416   1426.10352     627.5108     502.1416
   1426.08826     630.2280     505.0948   1426.08826     630.2280     505.0948
   1426.07300     633.1921     507.1512   1426.07300     633.1921     507.1512
   1426.05774     634.4571     509.7238   1426.05774     634.4571     509.7238
   1426.04248     637.4991     511.1208   1426.04248     637.4991     511.1208
   1426.02722     640.4247     513.9194   1426.02722     640.4247     513.9194
   1426.01196     641.9951     516.6083   1426.01196     641.9951     516.6083
   1425.99670     644.4840     518.9304   1425.99670     644.4840     518.9304
   1425.98145     646.8158     521.3912   1425.98145     646.8158     521.3912
   1425.96619     648.1053     523.3049   1425.96619     648.1053     523.3049
   1425.95093     651.1443     525.8263   1425.95093     651.1443     525.8263
   1425.93567     652.4227     528.0468   1425.93567     652.4227     528.0468
   1425.92041     656.1218     529.8766   1425.92041     656.1218     529.8766
   1425.90515     657.7871     531.2454   1425.90515     657.7871     531.2454
   1425.88989     659.6589     534.6968   1425.88989     659.6589     534.6968
   1425.87463     661.9616     535.4283   1425.87463     661.9616     535.4283
   1425.85938     663.7408     538.2460   1425.85938     663.7408     538.2460
   1425.84412     666.0477     540.5435   1425.84412     666.0477     540.5435
   1425.82886     668.0256     542.8922   1425.82886     668.0256     542.8922
   1425.81360     668.8312     545.5442   1425.81360     668.8312     545.5442
   1425.79834     671.8564     548.1056   1425.79834     671.8564     548.1056
   1425.78308     672.9294     549.0734   1425.78308     672.9294     549.0734
   1425.76782     675.8734     551.4274   1425.76782     675.8734     551.4274
   1425.75256     676.6464     552.3685   1425.75256     676.6464     552.3685
   1425.73730     678.0017     555.3136   1425.73730     678.0017     555.3136
   1425.72205     680.3246     558.0854   1425.72205     680.3246     558.0854
   1425.70679     681.4911     559.1074   1425.70679     681.4911     559.1074
   1425.69153     683.6347     561.9609   1425.69153     683.6347     561.9609
   1425.67627     686.2863     563.7318   1425.67627     686.2863     563.7318
   1425.66101     687.4013     566.3121   1425.66101     687.4013     566.3121
   1425.64575     690.1797     568.2552   1425.64575     690.1797     568.2552
   1425.63049     690.6307     570.6678   1425.63049     690.6307     570.6678
   1425.61523     692.3098     571.1844   1425.61523     692.3098     571.1844
   1425.59998     692.5718     573.9269   1425.59998     692.5718     573.9269
   1425.58472     694.7539     575.7540   1425.58472     694.7539     575.7540
   1425.56946     696.5264     577.6497   1425.56946     696.5264     577.6497
   1425.55420     697.5285     579.1683   1425.55420     697.5285     579.1683
   1425.53894     699.1358     581.1919   1425.53894     699.1358     581.1919
   1425.52368     700.0834     583.2410   1425.52368     700.0834     583.2410
   1425.50842     702.4489     584.4808   1425.50842     702.4489     584.4808
   1425.49316     702.5232     586.5449   1425.49316     702.5232     586.5449
   1425.47791     703.7062     588.3759   1425.47791     703.7062     588.3759
   1425.46265     705.2327     590.8129   1425.46265     705.2327     590.8129
   1425.44739     706.9756     592.3992   1425.44739     706.9756     592.3992
   1425.43213     708.9465     594.1983   1425.43213     708.9465     594.1983
   1425.41687     708.6581     596.6060   1425.41687     708.6581     596.6060
   1425.40161     710.9216     598.3583   1425.40161     710.9216     598.3583
   1425.38635     711.4619     599.9995   1425.38635     711.4619     599.9995
   1425.37109     712.4084     600.6884   1425.37109     712.4084     600.6884
   1425.35583     713.8760     602.9191   1425.35583     713.8760     602.9191
   1425.34058     714.7645     605.6165   1425.34058     714.7645     605.6165
   1425.32532     715.2600     605.7211   1425.32532     715.2600     605.7211
   1425.31006     715.9786     608.1397   1425.31006     715.9786     608.1397
   1425.29480     717.3835     609.9943   1425.29480     717.3835     609.9943
   1425.27954     719.2116     610.8706   1425.27954     719.2116     610.8706
   1425.26428     719.6824     613.2114   1425.26428     719.6824     613.2114
   1425.24902     720.7194     614.7592   1425.24902     720.7194     614.7592
   1425.23376     721.2149     616.2398   1425.23376     721.2149     616.2398
   1425.21851     722.3842     617.8527   1425.21851     722.3842     617.8527
   1425.20325     722.3309     619.2004   1425.20325     722.3309     619.2004
   1425.18799     723.7914     620.7043   1425.18799     723.7914     620.7043
   1425.17273     724.2496     622.6148   1425.17273     724.2496     622.6148
   1425.15747     726.4166     623.6286   1425.15747     726.4166     623.6286
   1425.14221     725.9499     625.3104   1425.14221     725.9499     625.3104
   1425.12695     727.1811     626.8318   1425.12695     727.1811     626.8318
   1425.11169     726.6646     628.3367   1425.11169     726.6646     628.3367
   1425.09644     728.1996     629.8922   1425.09644     728.1996     629.8922
   1425.08118     728.4297     630.9888   1425.08118     728.4297     630.9888
   1425.06592     728.0123     633.2100   1425.06592     728.0123     633.2100
   1425.05066     728.2702     633.3854   1425.05066     728.2702     633.3854
   1425.03540     730.0695     635.3076   1425.03540     730.0695     635.3076
   1425.02014     730.5011     636.3289   1425.02014     730.5011     636.3289
   1425.00488     729.6484     637.3824   1425.00488     729.6484     637.3824
   1424.98962     731.1168     638.1475   1424.98962     731.1168     638.1475
   1424.97437     732.5044     640.3568   1424.97437     732.5044     640.3568
   1424.95911     731.9550     641.7977   1424.95911     731.9550     641.7977
   1424.94385     732.5220     642.8550   1424.94385     732.5220     642.8550
   1424.92859     733.3911     643.9162   1424.92859     733.3911     643.9162
   1424.91333     733.0571     644.9299   1424.91333     733.0571     644.9299
   1424.89807     733.5829     646.9956   1424.89807     733.5829     646.9956
   1424.88281     733.2810     647.1019   1424.88281     733.2810     647.1019
   1424.86755     734.5059     649.1039   1424.86755     734.5059     649.1039
   1424.85229     736.0031     651.0735   1424.85229     736.0031     651.0735
   1424.83704     735.1823     649.8729   1424.83704     735.1823     649.8729
   1424.82178     734.8032     651.7253   1424.82178     734.8032     651.7253
   1424.80652     735.5300     653.8755   1424.80652     735.5300     653.8755
   1424.79126     735.8062     654.6956   1424.79126     735.8062     654.6956
   1424.77600     736.4979     655.7427   1424.77600     736.4979     655.7427
   1424.76074     736.2260     655.2637   1424.76074     736.2260     655.2637
   1424.74548     735.6921     657.0961   1424.74548     735.6921     657.0961
   1424.73022     736.7028     658.6891   1424.73022     736.7028     658.6891
   1424.71497     737.5733     659.3126   1424.71497     737.5733     659.3126
   1424.69971     736.4580     660.2466   1424.69971     736.4580     660.2466
   1424.68445     737.9388     661.5447   1424.68445     737.9388     661.5447
   1424.66919     736.3856     662.9050   1424.66919     736.3856     662.9050
   1424.65393     737.6563     663.8716   1424.65393     737.6563     663.8716
   1424.63867     736.0754     663.4333   1424.63867     736.0754     663.4333
   1424.62341     737.6647     665.3430   1424.62341     737.6647     665.3430
   1424.60815     735.3151     665.6313   1424.60815     735.3151     665.6313
   1424.59290     737.3668     666.9286   1424.59290     737.3668     666.9286
   1424.57764     737.6094     668.0238   1424.57764     737.6094     668.0238
   1424.56238     738.1490     667.7283   1424.56238     738.1490     667.7283
   1424.54712     737.2029     668.8233   1424.54712     737.2029     668.8233
   1424.53186     736.9376     670.3671   1424.53186     736.9376     670.3671
   1424.51660     737.1789     670.8368   1424.51660     737.1789     670.8368
   1424.50134     739.1866     671.4765   1424.50134     739.1866     671.4765
   1424.48608     737.0016     672.7615   1424.48608     737.0016     672.7615
   1424.47083     737.5582     672.9692   1424.47083     737.5582     672.9692
   1424.45557     737.5121     673.8767   1424.45557     737.5121     673.8767
   1424.44031     738.0825     675.2194   1424.44031     738.0825     675.2194
   1424.42505     736.5229     674.3909   1424.42505     736.5229     674.3909
   1424.40979     737.0004     676.0915   1424.40979     737.0004     676.0915
   1424.39453     737.5906     675.2571   1424.39453     737.5906     675.2571
   1424.37927     736.6696     675.7437   1424.37927     736.6696     675.7437
   1424.36401     737.1306     677.7200   1424.36401     737.1306     677.7200
   1424.34875     736.4742     677.8889   1424.34875     736.4742     677.8889
   1424.33350     736.8440     678.0083   1424.33350     736.8440     678.0083
   1424.31824     736.4536     679.4503   1424.31824     736.4536     679.4503
   1424.30298     736.6235     678.7796   1424.30298     736.6235     678.7796
   1424.28772     737.1440     680.3577   1424.28772     737.1440     680.3577
   1424.27246     736.1436     680.0840   1424.27246     736.1436     680.0840
   1424.25720     735.9157     681.4510   1424.25720     735.9157     681.4510
   1424.24194     734.8107     680.9213   1424.24194     734.8107     680.9213
   1424.22668     735.2076     680.7976   1424.22668     735.2076     680.7976
   1424.21143     735.9177     682.8403   1424.21143     735.9177     682.8403
   1424.19617     735.4343     682.2810   1424.19617     735.4343     682.2810
   1424.18091     735.8910     683.4904   1424.18091     735.8910     683.4904
   1424.16565     734.3516     682.4308   1424.16565     734.3516     682.4308
