#     FILENAME=!Skynet_57528_lach-hhg-98_20341_20905.cyb.fits
#     BASENAME=Skynet_57528_lach-hhg-98_20341_20905
#     SRC_NAME=lach-hhg-98
#     OBSERVER=hhgmadison16_9500
#     DATE_OBS=2016-05-20T15:19:37.620
#        OBSID=20341
#      SCANNUM=20905
#          MJD=57528.6397
#          UTC=55267
#     SCANTYPE=track
#     DATAMODE=HIRES
#     TUNEFREQ=1420.0000
# Actual_FREQ1=1420.0000
# Actual_FREQ2=1420.0000
#    LO1Tuning=6870.000
#     RFFILTER=1355_1435
#        OBSBW=-15.6250
#        NCHAN=1024 
#        FOCUS=37.0489
#           RA=21:49:10.37
#          DEC=53:48:27.23
#      RA(hrs)=21.819500
#     DEC(deg)=53.807600
#    AZIM(deg)=310.929
#    ELEV(deg)=46.227
#     IFattens=10.00, 9.00
#      WARNING=None
#    TCAL_XL1=7.9635
#    TCAL_YR1=9.1340
#    TCAL_XL2=7.9635
#    TCAL_YR2=9.1340
#     TRX_XL1=11.7060
#     TRX_YR1=11.7060
#     TRX_XL2=11.7060
#     TRX_YR2=11.7060
#        TAVE=1.0000
#Freq1(MHz)          XL1          YR1  Freq2(MHz)          XL2          YR2 

   1427.81250     369.0581     285.6019   1427.81250     369.0581     285.6019
   1427.79724     369.6349     285.9867   1427.79724     369.6349     285.9867
   1427.78198     370.2745     286.9496   1427.78198     370.2745     286.9496
   1427.76672     371.0064     287.8825   1427.76672     371.0064     287.8825
   1427.75146     371.6206     288.7188   1427.75146     371.6206     288.7188
   1427.73621     373.5248     289.3690   1427.73621     373.5248     289.3690
   1427.72095     373.7481     290.5039   1427.72095     373.7481     290.5039
   1427.70569     375.1469     290.9436   1427.70569     375.1469     290.9436
   1427.69043     375.9747     292.2091   1427.69043     375.9747     292.2091
   1427.67517     376.5241     292.9281   1427.67517     376.5241     292.9281
   1427.65991     377.6991     293.9460   1427.65991     377.6991     293.9460
   1427.64465     379.3860     295.2465   1427.64465     379.3860     295.2465
   1427.62939     380.8473     296.3033   1427.62939     380.8473     296.3033
   1427.61414     381.8323     297.6353   1427.61414     381.8323     297.6353
   1427.59888     383.2300     298.7293   1427.59888     383.2300     298.7293
   1427.58362     384.6823     299.9830   1427.58362     384.6823     299.9830
   1427.56836     386.5261     301.6978   1427.56836     386.5261     301.6978
   1427.55310     388.1989     302.8809   1427.55310     388.1989     302.8809
   1427.53784     389.0868     303.7988   1427.53784     389.0868     303.7988
   1427.52258     391.3750     305.4033   1427.52258     391.3750     305.4033
   1427.50732     393.2674     307.0743   1427.50732     393.2674     307.0743
   1427.49207     394.6975     308.3167   1427.49207     394.6975     308.3167
   1427.47681     396.9662     309.2764   1427.47681     396.9662     309.2764
   1427.46155     397.9720     311.3555   1427.46155     397.9720     311.3555
   1427.44629     400.1368     312.4278   1427.44629     400.1368     312.4278
   1427.43103     401.9072     314.2635   1427.43103     401.9072     314.2635
   1427.41577     403.5627     316.1338   1427.41577     403.5627     316.1338
   1427.40051     406.2216     317.2546   1427.40051     406.2216     317.2546
   1427.38525     407.6716     319.1816   1427.38525     407.6716     319.1816
   1427.37000     409.7827     321.0629   1427.37000     409.7827     321.0629
   1427.35474     412.1929     322.3987   1427.35474     412.1929     322.3987
   1427.33948     413.9841     324.1761   1427.33948     413.9841     324.1761
   1427.32422     415.9102     325.3231   1427.32422     415.9102     325.3231
   1427.30896     418.9190     327.1861   1427.30896     418.9190     327.1861
   1427.29370     420.9435     329.8977   1427.29370     420.9435     329.8977
   1427.27844     423.7300     331.2042   1427.27844     423.7300     331.2042
   1427.26318     425.9404     333.1320   1427.26318     425.9404     333.1320
   1427.24792     428.0896     334.8780   1427.24792     428.0896     334.8780
   1427.23267     430.3834     336.6041   1427.23267     430.3834     336.6041
   1427.21741     433.0345     338.3831   1427.21741     433.0345     338.3831
   1427.20215     435.3432     340.9912   1427.20215     435.3432     340.9912
   1427.18689     438.6098     342.1354   1427.18689     438.6098     342.1354
   1427.17163     440.9862     344.7359   1427.17163     440.9862     344.7359
   1427.15637     443.5900     346.0436   1427.15637     443.5900     346.0436
   1427.14111     445.9014     348.6838   1427.14111     445.9014     348.6838
   1427.12585     448.2085     350.5136   1427.12585     448.2085     350.5136
   1427.11060     451.3657     352.6744   1427.11060     451.3657     352.6744
   1427.09534     454.1860     355.0446   1427.09534     454.1860     355.0446
   1427.08008     457.1973     356.2938   1427.08008     457.1973     356.2938
   1427.06482     459.1215     358.7288   1427.06482     459.1215     358.7288
   1427.04956     462.7066     360.5186   1427.04956     462.7066     360.5186
   1427.03430     464.9325     362.9755   1427.03430     464.9325     362.9755
   1427.01904     468.1273     364.7362   1427.01904     468.1273     364.7362
   1427.00378     471.0175     367.5634   1427.00378     471.0175     367.5634
   1426.98853     473.3601     369.4285   1426.98853     473.3601     369.4285
   1426.97327     476.2773     371.8374   1426.97327     476.2773     371.8374
   1426.95801     479.6387     373.8994   1426.95801     479.6387     373.8994
   1426.94275     483.0529     376.0968   1426.94275     483.0529     376.0968
   1426.92749     485.0126     378.1326   1426.92749     485.0126     378.1326
   1426.91223     488.7465     380.4770   1426.91223     488.7465     380.4770
   1426.89697     491.3788     382.7798   1426.89697     491.3788     382.7798
   1426.88171     494.3364     384.7565   1426.88171     494.3364     384.7565
   1426.86646     497.9702     387.1533   1426.86646     497.9702     387.1533
   1426.85120     500.5591     389.5901   1426.85120     500.5591     389.5901
   1426.83594     503.8282     391.2776   1426.83594     503.8282     391.2776
   1426.82068     507.1117     393.2391   1426.82068     507.1117     393.2391
   1426.80542     509.6454     396.2520   1426.80542     509.6454     396.2520
   1426.79016     512.9034     398.5622   1426.79016     512.9034     398.5622
   1426.77490     515.8001     400.0995   1426.77490     515.8001     400.0995
   1426.75964     519.4482     402.8140   1426.75964     519.4482     402.8140
   1426.74438     522.5905     404.9316   1426.74438     522.5905     404.9316
   1426.72913     526.0533     407.2992   1426.72913     526.0533     407.2992
   1426.71387     528.1296     409.3821   1426.71387     528.1296     409.3821
   1426.69861     530.7933     412.0214   1426.69861     530.7933     412.0214
   1426.68335     534.5576     414.2108   1426.68335     534.5576     414.2108
   1426.66809     537.5256     416.0746   1426.66809     537.5256     416.0746
   1426.65283     540.8386     418.6717   1426.65283     540.8386     418.6717
   1426.63757     544.2950     420.8929   1426.63757     544.2950     420.8929
   1426.62231     549.6230     424.5271   1426.62231     549.6230     424.5271
   1426.60706     551.5848     425.6052   1426.60706     551.5848     425.6052
   1426.59180     551.8395     426.8206   1426.59180     551.8395     426.8206
   1426.57654     556.6028     429.2801   1426.57654     556.6028     429.2801
   1426.56128     558.3962     432.1982   1426.56128     558.3962     432.1982
   1426.54602     562.2453     433.4002   1426.54602     562.2453     433.4002
   1426.53076     565.9809     436.4126   1426.53076     565.9809     436.4126
   1426.51550     568.3558     437.9947   1426.51550     568.3558     437.9947
   1426.50024     571.5838     440.2364   1426.50024     571.5838     440.2364
   1426.48499     574.2916     442.6547   1426.48499     574.2916     442.6547
   1426.46973     577.9571     445.0685   1426.46973     577.9571     445.0685
   1426.45447     580.2035     447.5228   1426.45447     580.2035     447.5228
   1426.43921     583.2301     449.0439   1426.43921     583.2301     449.0439
   1426.42395     586.2599     451.4196   1426.42395     586.2599     451.4196
   1426.40869     589.0554     453.7926   1426.40869     589.0554     453.7926
   1426.39343     592.7542     455.1116   1426.39343     592.7542     455.1116
   1426.37817     594.5203     457.4628   1426.37817     594.5203     457.4628
   1426.36292     598.0560     459.7465   1426.36292     598.0560     459.7465
   1426.34766     600.7987     461.7899   1426.34766     600.7987     461.7899
   1426.33240     603.3281     464.9497   1426.33240     603.3281     464.9497
   1426.31714     605.9219     466.0242   1426.31714     605.9219     466.0242
   1426.30188     609.1656     468.4660   1426.30188     609.1656     468.4660
   1426.28662     612.6160     469.9869   1426.28662     612.6160     469.9869
   1426.27136     614.2927     472.3228   1426.27136     614.2927     472.3228
   1426.25610     618.0050     474.0418   1426.25610     618.0050     474.0418
   1426.24084     620.5120     475.5929   1426.24084     620.5120     475.5929
   1426.22559     623.2856     477.8171   1426.22559     623.2856     477.8171
   1426.21033     626.2618     479.7177   1426.21033     626.2618     479.7177
   1426.19507     628.5789     482.6412   1426.19507     628.5789     482.6412
   1426.17981     630.6939     483.9392   1426.17981     630.6939     483.9392
   1426.16455     633.9716     486.4762   1426.16455     633.9716     486.4762
   1426.14929     636.3273     488.2693   1426.14929     636.3273     488.2693
   1426.13403     638.4354     490.2791   1426.13403     638.4354     490.2791
   1426.11877     641.2962     492.2563   1426.11877     641.2962     492.2563
   1426.10352     644.2133     494.1957   1426.10352     644.2133     494.1957
   1426.08826     645.9730     495.4760   1426.08826     645.9730     495.4760
   1426.07300     648.6592     497.2343   1426.07300     648.6592     497.2343
   1426.05774     650.2902     499.6014   1426.05774     650.2902     499.6014
   1426.04248     655.0522     500.8230   1426.04248     655.0522     500.8230
   1426.02722     656.6107     502.9099   1426.02722     656.6107     502.9099
   1426.01196     658.5260     505.1020   1426.01196     658.5260     505.1020
   1425.99670     660.9785     506.9836   1425.99670     660.9785     506.9836
   1425.98145     662.1817     508.7139   1425.98145     662.1817     508.7139
   1425.96619     665.5676     509.0221   1425.96619     665.5676     509.0221
   1425.95093     666.3345     511.7502   1425.95093     666.3345     511.7502
   1425.93567     669.2675     513.3641   1425.93567     669.2675     513.3641
   1425.92041     672.4976     515.7191   1425.92041     672.4976     515.7191
   1425.90515     674.8631     516.9575   1425.90515     674.8631     516.9575
   1425.88989     677.1042     518.4530   1425.88989     677.1042     518.4530
   1425.87463     679.0441     519.9833   1425.87463     679.0441     519.9833
   1425.85938     681.6011     521.7154   1425.85938     681.6011     521.7154
   1425.84412     682.1511     522.6862   1425.84412     682.1511     522.6862
   1425.82886     685.6804     525.8192   1425.82886     685.6804     525.8192
   1425.81360     685.7052     527.0898   1425.81360     685.7052     527.0898
   1425.79834     687.5312     528.3709   1425.79834     687.5312     528.3709
   1425.78308     690.6937     529.7466   1425.78308     690.6937     529.7466
   1425.76782     691.4540     531.5085   1425.76782     691.4540     531.5085
   1425.75256     694.0049     533.1317   1425.75256     694.0049     533.1317
   1425.73730     695.5897     533.8173   1425.73730     695.5897     533.8173
   1425.72205     696.6581     536.1202   1425.72205     696.6581     536.1202
   1425.70679     698.2829     536.6329   1425.70679     698.2829     536.6329
   1425.69153     700.1021     539.2238   1425.69153     700.1021     539.2238
   1425.67627     702.2095     540.6346   1425.67627     702.2095     540.6346
   1425.66101     704.2971     541.4004   1425.66101     704.2971     541.4004
   1425.64575     705.9086     543.7215   1425.64575     705.9086     543.7215
   1425.63049     707.7765     544.7208   1425.63049     707.7765     544.7208
   1425.61523     707.2557     545.8164   1425.61523     707.2557     545.8164
   1425.59998     710.5051     547.5269   1425.59998     710.5051     547.5269
   1425.58472     710.6989     547.8540   1425.58472     710.6989     547.8540
   1425.56946     713.7344     549.6096   1425.56946     713.7344     549.6096
   1425.55420     714.1772     551.9175   1425.55420     714.1772     551.9175
   1425.53894     715.7170     552.3075   1425.53894     715.7170     552.3075
   1425.52368     717.1155     554.4230   1425.52368     717.1155     554.4230
   1425.50842     718.2719     554.9040   1425.50842     718.2719     554.9040
   1425.49316     720.1751     557.0631   1425.49316     720.1751     557.0631
   1425.47791     720.0042     557.5372   1425.47791     720.0042     557.5372
   1425.46265     723.0515     558.0193   1425.46265     723.0515     558.0193
   1425.44739     723.1835     559.9412   1425.44739     723.1835     559.9412
   1425.43213     724.4456     561.3507   1425.43213     724.4456     561.3507
   1425.41687     726.2831     563.7480   1425.41687     726.2831     563.7480
   1425.40161     726.7783     563.9528   1425.40161     726.7783     563.9528
   1425.38635     728.2175     565.0745   1425.38635     728.2175     565.0745
   1425.37109     729.3867     565.9819   1425.37109     729.3867     565.9819
   1425.35583     730.1026     567.1760   1425.35583     730.1026     567.1760
   1425.34058     730.3373     569.0344   1425.34058     730.3373     569.0344
   1425.32532     732.2631     568.7492   1425.32532     732.2631     568.7492
   1425.31006     732.6300     570.6666   1425.31006     732.6300     570.6666
   1425.29480     733.8450     571.7681   1425.29480     733.8450     571.7681
   1425.27954     734.1079     572.2429   1425.27954     734.1079     572.2429
   1425.26428     735.1043     573.5669   1425.26428     735.1043     573.5669
   1425.24902     735.6071     574.9752   1425.24902     735.6071     574.9752
   1425.23376     736.9778     575.8728   1425.23376     736.9778     575.8728
   1425.21851     737.4088     576.9727   1425.21851     737.4088     576.9727
   1425.20325     738.8912     578.6475   1425.20325     738.8912     578.6475
   1425.18799     738.8024     579.0547   1425.18799     738.8024     579.0547
   1425.17273     738.8839     579.9931   1425.17273     738.8839     579.9931
   1425.15747     739.7017     580.9916   1425.15747     739.7017     580.9916
   1425.14221     741.2043     582.4731   1425.14221     741.2043     582.4731
   1425.12695     741.7394     583.0597   1425.12695     741.7394     583.0597
   1425.11169     742.4955     584.5256   1425.11169     742.4955     584.5256
   1425.09644     742.5017     585.3203   1425.09644     742.5017     585.3203
   1425.08118     742.6544     585.9578   1425.08118     742.6544     585.9578
   1425.06592     742.5269     587.6913   1425.06592     742.5269     587.6913
   1425.05066     744.5144     586.4610   1425.05066     744.5144     586.4610
   1425.03540     744.5823     588.4445   1425.03540     744.5823     588.4445
   1425.02014     745.0258     588.7791   1425.02014     745.0258     588.7791
   1425.00488     745.2331     591.9918   1425.00488     745.2331     591.9918
   1424.98962     745.3506     591.6401   1424.98962     745.3506     591.6401
   1424.97437     746.1178     592.2098   1424.97437     746.1178     592.2098
   1424.95911     746.8199     593.6906   1424.95911     746.8199     593.6906
   1424.94385     745.7684     593.1962   1424.94385     745.7684     593.1962
   1424.92859     745.1673     595.1428   1424.92859     745.1673     595.1428
   1424.91333     746.7392     595.5197   1424.91333     746.7392     595.5197
   1424.89807     747.7938     596.8956   1424.89807     747.7938     596.8956
   1424.88281     747.6122     597.2618   1424.88281     747.6122     597.2618
   1424.86755     746.8723     597.7684   1424.86755     746.8723     597.7684
   1424.85229     748.0359     599.3649   1424.85229     748.0359     599.3649
   1424.83704     747.7426     600.2073   1424.83704     747.7426     600.2073
   1424.82178     749.5048     601.0800   1424.82178     749.5048     601.0800
   1424.80652     748.9678     601.6813   1424.80652     748.9678     601.6813
   1424.79126     748.2659     601.8094   1424.79126     748.2659     601.8094
   1424.77600     749.6962     602.5329   1424.77600     749.6962     602.5329
   1424.76074     749.9958     603.3106   1424.76074     749.9958     603.3106
   1424.74548     748.3235     604.1860   1424.74548     748.3235     604.1860
   1424.73022     748.3580     605.3784   1424.73022     748.3580     605.3784
   1424.71497     749.0048     605.1276   1424.71497     749.0048     605.1276
   1424.69971     747.9286     606.7448   1424.69971     747.9286     606.7448
   1424.68445     748.4035     607.4546   1424.68445     748.4035     607.4546
   1424.66919     749.9457     606.8311   1424.66919     749.9457     606.8311
   1424.65393     747.7436     608.2977   1424.65393     747.7436     608.2977
   1424.63867     748.7160     609.8188   1424.63867     748.7160     609.8188
   1424.62341     750.0970     610.3915   1424.62341     750.0970     610.3915
   1424.60815     748.4909     611.2151   1424.60815     748.4909     611.2151
   1424.59290     749.3399     610.6215   1424.59290     749.3399     610.6215
   1424.57764     749.0114     612.4320   1424.57764     749.0114     612.4320
   1424.56238     748.5952     612.8630   1424.56238     748.5952     612.8630
   1424.54712     748.1488     613.6348   1424.54712     748.1488     613.6348
   1424.53186     748.3716     613.4776   1424.53186     748.3716     613.4776
   1424.51660     747.6653     614.4636   1424.51660     747.6653     614.4636
   1424.50134     748.7297     616.3986   1424.50134     748.7297     616.3986
   1424.48608     747.1902     616.3860   1424.48608     747.1902     616.3860
   1424.47083     748.1391     615.6962   1424.47083     748.1391     615.6962
   1424.45557     746.9124     616.8215   1424.45557     746.9124     616.8215
   1424.44031     748.6022     617.7949   1424.44031     748.6022     617.7949
   1424.42505     748.3545     617.8322   1424.42505     748.3545     617.8322
   1424.40979     747.9548     618.1977   1424.40979     747.9548     618.1977
   1424.39453     746.8293     618.3900   1424.39453     746.8293     618.3900
   1424.37927     746.7142     620.4038   1424.37927     746.7142     620.4038
   1424.36401     745.6526     620.0233   1424.36401     745.6526     620.0233
   1424.34875     745.9470     621.3056   1424.34875     745.9470     621.3056
   1424.33350     746.9276     621.4371   1424.33350     746.9276     621.4371
   1424.31824     746.3972     621.8694   1424.31824     746.3972     621.8694
   1424.30298     746.3173     623.4164   1424.30298     746.3173     623.4164
   1424.28772     745.8925     622.6699   1424.28772     745.8925     622.6699
   1424.27246     746.0182     623.6450   1424.27246     746.0182     623.6450
   1424.25720     746.1299     624.2363   1424.25720     746.1299     624.2363
   1424.24194     745.4730     624.3502   1424.24194     745.4730     624.3502
   1424.22668     746.4690     626.0002   1424.22668     746.4690     626.0002
   1424.21143     744.4263     625.7574   1424.21143     744.4263     625.7574
   1424.19617     743.9113     625.8602   1424.19617     743.9113     625.8602
   1424.18091     744.8926     627.0231   1424.18091     744.8926     627.0231
   1424.16565     743.6991     626.8664   1424.16565     743.6991     626.8664
